EC4 File used by Nordic Electrochemistry Aps
FileVersion:	1.0

SetupInfo
----------------------------------------------------
Name	CV_162509_ 2
EC_Tech	CV
Current Range	1mA
Control Mode	WE
Cell Switch	TRUE
Start	-0,400 V
V1	-1,200 V
V2	-0,400 V
Rate	0,050 V
Nr of Sweeps	5,00
Method.Duration	160,0
Method.Cycle Duration	32,0
Method.Avg.Time	0,02
AC Frequency	5,000E+3 Hz
AC Amplitude	0,0050 V
Index	
Description	EC Data
Current Mode	1
Current Amplification	1
Control Loop BW	3
Control Option	Normal
Author	2019
dateTime	18.11.2019 16:25:09
Current Range	1mA
Control Mode	WE
Cell Switch	TRUE
Start	-0,400 V
V1	-1,200 V
V2	-0,400 V
Rate	0,050 V
Nr of Sweeps	5,00
Method.Duration	160,0
Method.Cycle Duration	32,0
Method.Avg.Time	0,02
AC Frequency	5,000E+3 Hz
AC Amplitude	0,0050 V
Gas	None
Temp_0	0,00 K
Temp_1	0,00 K
Pressure	100000 Pa
Cell Material	
CounterElectrode	
Ref.Electrode	
R.solution	-1,00 Ohm
IR.compensation	-1,00 Ohm
Electrode.Material	
Electrode.Tip	
Electrode.Area	2,00E-5 m^2
Electrode.ExElectrode	
Note	
Inst.Convection	
Convection.Speed	0,0 /min
Inst.Temp.0	
Inst.Temp.1	
Inst.Temp.2	
Inst.Pressure	
Inst.Pressure.Sensor Name	
Lib.InterfacePotentiostat	1.0.0.53
Lib.ECi-200	1.0.1.0
Lib.Potentiostat_DAQ	4.1.0.53
DAQ.Driver_Name	DAQmx
DAQ.Driver_Ver	16,1.0
Inst.Potentiostat	ECi-200
Inst.Potentiostat.Mode	WE
DAQ.Device	USB-6212 (OEM)
DAQ.Device.ProductNum	29537
DAQ.Device.SerialNum	27188793
DAQ.Device.Name	Dev1
DAQ.AO.Channel	Dev1/ao0
DAQ.AO.Sampling	100000 Hz;10000
DAQ.AI.Sampling	4803000 Hz;3000
Loading	
Path	D:\temp\CV_162509_ 2.tdms


EC Data
----------------------------------------------------
Channels	5
Channel Names	Time; E; i; Z_E; Phase_E
Samples  	1600; 1600; 1600; 321; 321
wf_xname	Time; Time; Time; Time; Time
wf_xunit_string	s; s; s; s; s
wf_start_offset	0.000000E+0; 0.000000E+0; 0.000000E+0; -13.253400E-3; -13.253400E-3
wf_increment	20.013300E-3; 20.013300E-3; 20.013300E-3; 99.900000E-3; 99.900000E-3
----------------------------------------------------
Time (s)	E (V)	i (A)	Z_E (Ohm)	Phase_E (rad)
0.00000E+0	-0.40062	5.83658E-7	1.64125E+4	8.47182E-2
2.00133E-2	-0.39963	5.86412E-7	1.43981E+4	-6.24048E+0
4.00266E-2	-0.39974	5.40142E-7	1.47851E+4	6.92889E-2
6.00399E-2	-0.40076	5.22516E-7	1.37191E+4	-6.15981E+0
8.00532E-2	-0.40176	5.15906E-7	1.46568E+4	6.24478E+0
1.00066E-1	-0.40277	4.94424E-7	1.42138E+4	-6.15629E+0
1.20080E-1	-0.40376	4.60823E-7	1.48214E+4	-6.01192E+0
1.40093E-1	-0.40478	4.63577E-7	1.56687E+4	-6.20129E+0
1.60106E-1	-0.40576	4.74043E-7	1.47762E+4	3.12735E-2
1.80120E-1	-0.40673	4.66882E-7	1.54023E+4	-6.00706E+0
2.00133E-1	-0.40776	4.60823E-7	1.50905E+4	2.87869E-2
2.20146E-1	-0.40874	4.73492E-7	1.46028E+4	-6.09590E+0
2.40160E-1	-0.40973	4.61925E-7	1.45632E+4	1.03150E-2
2.60173E-1	-0.41077	4.42646E-7	1.51754E+4	-6.12157E+0
2.80186E-1	-0.41174	4.28325E-7	1.46328E+4	4.09474E-2
3.00200E-1	-0.41276	4.40994E-7	1.42111E+4	-9.52146E-2
3.20213E-1	-0.41374	4.33282E-7	1.51238E+4	2.56266E-2
3.40226E-1	-0.41476	4.78450E-7	1.45680E+4	-6.28249E+0
3.60239E-1	-0.41575	4.70738E-7	1.56660E+4	6.25452E+0
3.80253E-1	-0.41675	4.63027E-7	1.61449E+4	-6.19059E+0
4.00266E-1	-0.41779	4.53663E-7	1.38075E+4	8.39603E-2
4.20279E-1	-0.41875	4.51459E-7	1.45865E+4	-6.19452E+0
4.40293E-1	-0.41979	4.16206E-7	1.44198E+4	1.29374E-1
4.60306E-1	-0.42075	4.43748E-7	1.49385E+4	-6.18558E+0
4.80319E-1	-0.42176	4.58069E-7	1.46222E+4	6.31030E-2
5.00332E-1	-0.42275	4.62476E-7	1.39966E+4	-6.22520E+0
5.20346E-1	-0.42378	4.49256E-7	1.46632E+4	5.12866E-2
5.40359E-1	-0.42476	4.30528E-7	1.43004E+4	-6.18415E+0
5.60372E-1	-0.42576	4.56417E-7	1.51120E+4	5.36851E-2
5.80386E-1	-0.42675	4.15655E-7	1.51064E+4	-6.13787E+0
6.00399E-1	-0.42774	4.53663E-7	1.50470E+4	8.95982E-2
6.20412E-1	-0.42877	4.64679E-7	1.38963E+4	-6.07074E+0
6.40426E-1	-0.42976	4.15105E-7	1.49029E+4	5.10612E-2
6.60439E-1	-0.43082	4.31079E-7	1.37718E+4	-6.15775E+0
6.80452E-1	-0.43180	4.15105E-7	1.53002E+4	9.09814E-3
7.00466E-1	-0.43275	4.25570E-7	1.46724E+4	-6.16381E+0
7.20479E-1	-0.43375	4.40994E-7	1.49098E+4	6.26652E+0
7.40492E-1	-0.43480	4.23918E-7	1.39672E+4	-6.17423E+0
7.60505E-1	-0.43581	4.17859E-7	1.50761E+4	6.21443E+0
7.80519E-1	-0.43678	4.39341E-7	1.47015E+4	-6.15409E+0
8.00532E-1	-0.43780	4.63027E-7	1.41785E+4	1.21117E-1
8.20545E-1	-0.43881	4.42095E-7	1.38216E+4	-3.31679E-2
8.40559E-1	-0.43977	4.22265E-7	1.64343E+4	-6.09062E+0
8.60572E-1	-0.44081	4.47053E-7	1.41000E+4	-6.16433E+0
8.80585E-1	-0.44179	4.36036E-7	1.41167E+4	6.80597E-2
9.00599E-1	-0.44277	4.35485E-7	1.46370E+4	-6.25029E+0
9.20612E-1	-0.44379	4.33282E-7	1.45875E+4	7.87003E-2
9.40625E-1	-0.44475	4.39341E-7	1.46191E+4	-6.20978E+0
9.60638E-1	-0.44578	4.17308E-7	1.42252E+4	1.11695E-1
9.80652E-1	-0.44675	4.64679E-7	1.46535E+4	-6.13406E+0
1.00066E+0	-0.44776	4.28325E-7	1.52136E+4	-6.09869E+0
1.02068E+0	-0.44874	4.42095E-7	1.60847E+4	-6.27440E+0
1.04069E+0	-0.44976	4.70187E-7	1.44614E+4	1.25733E-1
1.06070E+0	-0.45077	4.35485E-7	1.51881E+4	-6.10007E+0
1.08072E+0	-0.45176	4.66882E-7	1.35460E+4	1.48796E-1
1.10073E+0	-0.45281	4.44298E-7	1.42427E+4	-6.16990E+0
1.12074E+0	-0.45379	4.44849E-7	1.47037E+4	1.46654E-3
1.14076E+0	-0.45477	4.46502E-7	1.52280E+4	-6.27326E+0
1.16077E+0	-0.45577	4.40443E-7	1.49494E+4	3.99749E-2
1.18078E+0	-0.45678	4.51459E-7	1.52621E+4	-5.16540E-2
1.20080E+0	-0.45779	4.64128E-7	1.40742E+4	9.05990E-2
1.22081E+0	-0.45876	4.66332E-7	1.49358E+4	-6.20577E+0
1.24082E+0	-0.45976	4.56417E-7	1.37656E+4	6.18928E+0
1.26084E+0	-0.46081	4.32731E-7	1.49224E+4	-6.25743E+0
1.28085E+0	-0.46176	4.19511E-7	1.50759E+4	-6.08712E+0
1.30086E+0	-0.46277	4.44849E-7	1.41858E+4	-6.17208E+0
1.32088E+0	-0.46379	4.46502E-7	1.56935E+4	1.34252E-1
1.34089E+0	-0.46476	4.25020E-7	1.40752E+4	-1.35569E-2
1.36090E+0	-0.46578	4.24469E-7	1.40639E+4	1.31400E-2
1.38092E+0	-0.46676	4.38790E-7	1.49778E+4	-9.93162E-2
1.40093E+0	-0.46780	4.24469E-7	1.56213E+4	4.11306E-2
1.42094E+0	-0.46875	4.39341E-7	1.60805E+4	-8.65287E-2
1.44096E+0	-0.46975	4.25570E-7	1.44750E+4	1.00326E-1
1.46097E+0	-0.47079	4.72942E-7	1.47136E+4	-6.22401E+0
1.48098E+0	-0.47176	4.30528E-7	1.48821E+4	3.45432E-2
1.50100E+0	-0.47276	4.20613E-7	1.45437E+4	-6.11285E-2
1.52101E+0	-0.47376	4.25570E-7	1.40321E+4	1.22952E-1
1.54102E+0	-0.47477	4.32731E-7	1.42773E+4	-6.21135E+0
1.56104E+0	-0.47580	4.25570E-7	1.51983E+4	5.85882E-3
1.58105E+0	-0.47678	4.40443E-7	1.53158E+4	-1.08234E-1
1.60106E+0	-0.47777	4.38239E-7	1.54787E+4	5.63285E-2
1.62108E+0	-0.47878	4.39341E-7	1.57485E+4	-1.95625E-1
1.64109E+0	-0.47974	4.37138E-7	1.42651E+4	5.71444E-2
1.66110E+0	-0.48078	4.33282E-7	1.43872E+4	-3.42642E-2
1.68112E+0	-0.48176	4.39892E-7	1.51362E+4	1.09149E-1
1.70113E+0	-0.48279	4.29977E-7	1.43347E+4	-6.16276E+0
1.72114E+0	-0.48366	4.52561E-7	1.53055E+4	1.35379E-1
1.74116E+0	-0.48474	4.18960E-7	1.52892E+4	-1.74042E-2
1.76117E+0	-0.48575	4.66332E-7	1.47810E+4	6.24181E+0
1.78118E+0	-0.48670	4.34384E-7	1.44367E+4	-6.24056E+0
1.80120E+0	-0.48783	4.48705E-7	1.60991E+4	7.92024E-2
1.82121E+0	-0.48872	4.25570E-7	1.48287E+4	-6.27762E+0
1.84122E+0	-0.48980	4.25020E-7	1.38435E+4	8.77580E-2
1.86124E+0	-0.49083	4.26121E-7	1.44381E+4	-4.14082E-2
1.88125E+0	-0.49170	4.54764E-7	1.47058E+4	-6.07319E+0
1.90126E+0	-0.49270	3.99131E-7	1.45572E+4	-6.28256E+0
1.92128E+0	-0.49375	4.27223E-7	1.46942E+4	6.22728E+0
1.94129E+0	-0.49478	4.32731E-7	1.45447E+4	-6.21458E+0
1.96130E+0	-0.49579	4.23918E-7	1.39782E+4	1.79297E-3
1.98132E+0	-0.49677	4.50358E-7	1.41436E+4	-6.17896E+0
2.00133E+0	-0.49775	4.43197E-7	1.45401E+4	2.68595E-2
2.02134E+0	-0.49881	4.24469E-7	1.60083E+4	-6.18947E+0
2.04136E+0	-0.49980	4.31079E-7	1.49881E+4	9.22028E-2
2.06137E+0	-0.50080	4.08495E-7	1.40509E+4	-6.10423E+0
2.08138E+0	-0.50176	4.43748E-7	1.49409E+4	1.15207E-1
2.10140E+0	-0.50278	4.19511E-7	1.55740E+4	-6.18007E+0
2.12141E+0	-0.50374	4.19511E-7	1.49814E+4	5.36193E-2
2.14142E+0	-0.50478	4.11800E-7	1.51348E+4	-6.17193E+0
2.16144E+0	-0.50579	4.23918E-7	1.57057E+4	5.97776E-2
2.18145E+0	-0.50680	4.30528E-7	1.50390E+4	-2.01218E-2
2.20146E+0	-0.50777	4.42646E-7	1.53539E+4	6.22602E+0
2.22148E+0	-0.50879	4.21164E-7	1.48575E+4	-6.25654E+0
2.24149E+0	-0.50979	4.27223E-7	1.56261E+4	6.22398E-2
2.26150E+0	-0.51078	4.28325E-7	1.51253E+4	-6.21765E+0
2.28152E+0	-0.51177	4.06842E-7	1.50339E+4	1.36328E-2
2.30153E+0	-0.51277	4.25570E-7	1.52769E+4	-6.09139E+0
2.32154E+0	-0.51375	4.48705E-7	1.48892E+4	1.45291E-1
2.34156E+0	-0.51476	4.24469E-7	1.53170E+4	-6.13038E+0
2.36157E+0	-0.51579	3.97478E-7	1.43724E+4	7.68617E-3
2.38158E+0	-0.51682	4.39892E-7	1.47668E+4	-6.68711E-2
2.40160E+0	-0.51778	4.23918E-7	1.50892E+4	6.25335E+0
2.42161E+0	-0.51875	4.13452E-7	1.43799E+4	-6.23226E+0
2.44162E+0	-0.51981	4.15655E-7	1.52162E+4	6.31113E-2
2.46164E+0	-0.52080	4.22816E-7	1.48045E+4	-6.26462E-2
2.48165E+0	-0.52177	3.98029E-7	1.41104E+4	7.16805E-2
2.50166E+0	-0.52279	4.16757E-7	1.48841E+4	-5.99835E+0
2.52168E+0	-0.52383	4.12901E-7	1.51442E+4	3.22575E-2
2.54169E+0	-0.52483	4.25570E-7	1.50581E+4	-5.01932E-2
2.56170E+0	-0.52580	4.16206E-7	1.46275E+4	3.09223E-2
2.58172E+0	-0.52679	4.42095E-7	1.50983E+4	-6.16982E+0
2.60173E+0	-0.52779	4.61925E-7	1.52823E+4	5.23621E-2
2.62174E+0	-0.52880	4.17859E-7	1.53641E+4	-6.14020E+0
2.64176E+0	-0.52980	3.99131E-7	1.44541E+4	5.00365E-2
2.66177E+0	-0.53079	4.37689E-7	1.46127E+4	-1.23483E-1
2.68178E+0	-0.53179	4.34384E-7	1.46361E+4	3.96877E-2
2.70180E+0	-0.53281	4.14554E-7	1.45048E+4	-5.98279E+0
2.72181E+0	-0.53380	4.23367E-7	1.51531E+4	5.18889E-2
2.74182E+0	-0.53479	4.16757E-7	1.46337E+4	-5.80680E-2
2.76184E+0	-0.53579	4.21715E-7	1.53382E+4	6.16758E+0
2.78185E+0	-0.53680	4.05741E-7	1.48581E+4	-6.21222E+0
2.80186E+0	-0.53784	4.02436E-7	1.44124E+4	-6.01672E+0
2.82188E+0	-0.53882	4.18410E-7	1.41062E+4	-6.12332E+0
2.84189E+0	-0.53985	4.12351E-7	1.46448E+4	-6.00737E+0
2.86190E+0	-0.54082	4.12351E-7	1.43459E+4	-6.27686E+0
2.88192E+0	-0.54181	4.32731E-7	1.45535E+4	1.12660E-1
2.90193E+0	-0.54278	4.40994E-7	1.45910E+4	-6.17245E+0
2.92194E+0	-0.54380	4.45951E-7	1.42494E+4	6.25239E+0
2.94196E+0	-0.54481	4.14554E-7	1.44558E+4	-6.17535E+0
2.96197E+0	-0.54582	3.91970E-7	1.52534E+4	1.60815E-2
2.98198E+0	-0.54681	4.21715E-7	1.45577E+4	-6.22637E+0
3.00200E+0	-0.54782	3.82055E-7	1.44610E+4	3.10407E-3
3.02201E+0	-0.54882	4.02986E-7	1.43724E+4	-6.09593E+0
3.04202E+0	-0.54982	4.27223E-7	1.44490E+4	4.34841E-2
3.06203E+0	-0.55084	4.19511E-7	1.44683E+4	-6.15394E+0
3.08205E+0	-0.55184	4.16757E-7	1.51156E+4	5.59712E-2
3.10206E+0	-0.55280	4.15105E-7	1.36877E+4	-6.03408E+0
3.12207E+0	-0.55381	3.98029E-7	1.55263E+4	-6.07413E+0
3.14209E+0	-0.55483	4.05741E-7	1.47122E+4	-1.37776E-2
3.16210E+0	-0.55581	4.22265E-7	1.43928E+4	7.24041E-2
3.18211E+0	-0.55683	4.00232E-7	1.39730E+4	-6.22085E+0
3.20213E+0	-0.55781	3.81504E-7	1.41709E+4	5.08584E-2
3.22214E+0	-0.55883	4.11249E-7	1.49168E+4	-6.16287E+0
3.24215E+0	-0.55981	3.74894E-7	1.42399E+4	5.33190E-2
3.26217E+0	-0.56079	3.80953E-7	1.45704E+4	-6.27184E+0
3.28218E+0	-0.56177	3.78199E-7	1.45871E+4	1.10851E-1
3.30219E+0	-0.56279	3.75445E-7	1.40223E+4	-7.58872E-2
3.32221E+0	-0.56383	3.77648E-7	1.43861E+4	5.65901E-2
3.34222E+0	-0.56486	3.69386E-7	1.45112E+4	-6.27615E+0
3.36223E+0	-0.56581	4.01334E-7	1.48650E+4	-6.08424E+0
3.38225E+0	-0.56686	4.09046E-7	1.34994E+4	-6.17460E+0
3.40226E+0	-0.56778	4.12901E-7	1.44636E+4	6.21157E+0
3.42227E+0	-0.56880	4.02436E-7	1.48116E+4	-6.09947E+0
3.44229E+0	-0.56983	4.00783E-7	1.44642E+4	1.31891E-2
3.46230E+0	-0.57080	3.88114E-7	1.43615E+4	-6.21496E+0
3.48231E+0	-0.57184	3.94173E-7	1.51751E+4	1.04858E-1
3.50233E+0	-0.57282	4.07944E-7	1.43122E+4	-6.18294E+0
3.52234E+0	-0.57379	4.00232E-7	1.53906E+4	8.47875E-2
3.54235E+0	-0.57483	4.25020E-7	1.48038E+4	-8.33297E-2
3.56237E+0	-0.57581	3.96927E-7	1.55352E+4	8.26532E-2
3.58238E+0	-0.57682	4.26121E-7	1.41737E+4	-6.19574E+0
3.60239E+0	-0.57781	4.14003E-7	1.42043E+4	1.19502E-1
3.62241E+0	-0.57882	4.23367E-7	1.51252E+4	-6.23137E+0
3.64242E+0	-0.57980	3.90868E-7	1.45233E+4	6.27020E+0
3.66243E+0	-0.58079	3.78750E-7	1.55247E+4	-6.19310E+0
3.68245E+0	-0.58181	4.05190E-7	1.50336E+4	5.86447E-2
3.70246E+0	-0.58283	4.11249E-7	1.47359E+4	-6.27037E+0
3.72247E+0	-0.58381	4.01334E-7	1.51232E+4	6.25229E+0
3.74249E+0	-0.58483	3.97478E-7	1.53968E+4	-3.51787E-2
3.76250E+0	-0.58583	3.84809E-7	1.52296E+4	4.10328E-2
3.78251E+0	-0.58681	3.99131E-7	1.42272E+4	-1.58110E-2
3.80253E+0	-0.58786	3.79301E-7	1.57252E+4	6.11305E+0
3.82254E+0	-0.58883	3.84809E-7	1.44655E+4	-6.24897E+0
3.84255E+0	-0.58986	4.02436E-7	1.47181E+4	7.18305E-2
3.86257E+0	-0.59084	3.72691E-7	1.43150E+4	-6.15920E+0
3.88258E+0	-0.59184	3.98580E-7	1.52659E+4	6.19593E+0
3.90259E+0	-0.59282	4.18410E-7	1.53309E+4	-6.23994E+0
3.92261E+0	-0.59382	4.00232E-7	1.42334E+4	3.24805E-2
3.94262E+0	-0.59481	3.86462E-7	1.50495E+4	-6.12695E+0
3.96263E+0	-0.59581	3.72691E-7	1.48365E+4	-6.09772E+0
3.98265E+0	-0.59683	3.95826E-7	1.54134E+4	-6.26069E+0
4.00266E+0	-0.59782	3.66081E-7	1.52572E+4	6.25856E+0
4.02267E+0	-0.59883	3.91419E-7	1.38797E+4	-5.15577E-2
4.04269E+0	-0.59982	3.94173E-7	1.49282E+4	1.79075E-2
4.06270E+0	-0.60081	3.93072E-7	1.56531E+4	-6.10702E+0
4.08271E+0	-0.60185	3.80403E-7	1.50852E+4	2.13492E-2
4.10273E+0	-0.60280	3.98029E-7	1.48314E+4	-1.26109E-1
4.12274E+0	-0.60384	3.89767E-7	1.40799E+4	-6.08859E+0
4.14275E+0	-0.60484	4.00232E-7	1.44565E+4	-6.21369E+0
4.16277E+0	-0.60588	3.79852E-7	1.65095E+4	1.00423E-1
4.18278E+0	-0.60690	3.68835E-7	1.48749E+4	-6.14785E+0
4.20279E+0	-0.60785	3.90868E-7	1.53718E+4	4.99876E-2
4.22281E+0	-0.60887	3.73793E-7	1.50303E+4	-1.02805E-1
4.24282E+0	-0.60984	3.75445E-7	1.46260E+4	1.02828E-2
4.26283E+0	-0.61087	3.55615E-7	1.57408E+4	-6.23925E+0
4.28285E+0	-0.61189	3.90868E-7	1.49076E+4	1.04327E-1
4.30286E+0	-0.61287	3.63327E-7	1.41094E+4	-6.18438E+0
4.32287E+0	-0.61387	3.91970E-7	1.47966E+4	7.38030E-2
4.34289E+0	-0.61483	3.83708E-7	1.52659E+4	-5.97678E+0
4.36290E+0	-0.61585	4.09046E-7	1.52233E+4	-5.96278E+0
4.38291E+0	-0.61689	3.82606E-7	1.45810E+4	-6.18120E+0
4.40293E+0	-0.61786	3.84809E-7	1.53467E+4	5.68737E-2
4.42294E+0	-0.61887	3.96927E-7	1.46787E+4	-6.27730E+0
4.44295E+0	-0.61986	4.10698E-7	1.46781E+4	1.12610E-1
4.46297E+0	-0.62088	3.84809E-7	1.51171E+4	-1.55799E-1
4.48298E+0	-0.62191	4.03537E-7	1.53662E+4	-6.07352E+0
4.50299E+0	-0.62287	4.17308E-7	1.48301E+4	-6.15284E+0
4.52301E+0	-0.62384	3.55064E-7	1.48629E+4	8.47740E-2
4.54302E+0	-0.62484	3.94173E-7	1.59185E+4	-3.83303E-2
4.56303E+0	-0.62585	3.96927E-7	1.43040E+4	2.10121E-2
4.58305E+0	-0.62687	3.91970E-7	1.44012E+4	-6.11331E+0
4.60306E+0	-0.62785	4.13452E-7	1.53275E+4	2.98653E-2
4.62307E+0	-0.62887	4.06291E-7	1.49673E+4	-6.19896E+0
4.64309E+0	-0.62986	3.87012E-7	1.40927E+4	6.23325E+0
4.66310E+0	-0.63082	4.43197E-7	1.43424E+4	-6.26800E+0
4.68311E+0	-0.63185	4.19511E-7	1.50731E+4	6.28058E+0
4.70313E+0	-0.63286	4.16206E-7	1.46513E+4	-1.12950E-1
4.72314E+0	-0.63386	3.99681E-7	1.42093E+4	6.23502E+0
4.74315E+0	-0.63485	4.14554E-7	1.46361E+4	-6.12757E+0
4.76317E+0	-0.63585	3.85360E-7	1.42081E+4	4.40107E-2
4.78318E+0	-0.63686	4.44298E-7	1.40246E+4	-6.16217E+0
4.80319E+0	-0.63787	3.83157E-7	1.38021E+4	4.68783E-2
4.82321E+0	-0.63887	3.95275E-7	1.51129E+4	-6.13379E+0
4.84322E+0	-0.63984	4.11800E-7	1.45216E+4	6.21225E+0
4.86323E+0	-0.64085	4.15655E-7	1.53624E+4	-6.10929E+0
4.88324E+0	-0.64186	3.83157E-7	1.55548E+4	6.25988E+0
4.90326E+0	-0.64282	3.85911E-7	1.46945E+4	-6.27121E+0
4.92327E+0	-0.64387	4.10147E-7	1.41088E+4	-6.04664E+0
4.94328E+0	-0.64479	3.79852E-7	1.43962E+4	-6.24661E+0
4.96330E+0	-0.64581	4.19511E-7	1.38989E+4	1.34187E-1
4.98331E+0	-0.64682	4.09046E-7	1.48415E+4	-6.13473E+0
5.00332E+0	-0.64782	3.78199E-7	1.46018E+4	-6.01805E+0
5.02334E+0	-0.64885	4.44849E-7	1.55856E+4	-6.17874E+0
5.04335E+0	-0.64984	4.09046E-7	1.46713E+4	2.64201E-2
5.06336E+0	-0.65080	3.96377E-7	1.47884E+4	-6.22954E+0
5.08338E+0	-0.65185	4.07393E-7	1.47170E+4	1.06621E-1
5.10339E+0	-0.65283	3.68284E-7	1.46610E+4	-6.20232E+0
5.12340E+0	-0.65377	4.04639E-7	1.62327E+4	7.80639E-3
5.14342E+0	-0.65483	3.91970E-7	1.57517E+4	-6.17971E+0
5.16343E+0	-0.65583	4.07393E-7	1.45730E+4	4.45214E-2
5.18344E+0	-0.65684	3.95275E-7	1.51394E+4	-9.23628E-3
5.20346E+0	-0.65786	4.26121E-7	1.44614E+4	2.74689E-2
5.22347E+0	-0.65880	4.34384E-7	1.43428E+4	-6.16309E+0
5.24348E+0	-0.65983	4.18960E-7	1.46159E+4	1.00944E-1
5.26350E+0	-0.66084	3.82055E-7	1.43760E+4	-6.17098E+0
5.28351E+0	-0.66182	3.78199E-7	1.43232E+4	8.45641E-2
5.30352E+0	-0.66283	3.91419E-7	1.40592E+4	-6.26751E+0
5.32354E+0	-0.66382	4.40994E-7	1.39067E+4	6.26933E+0
5.34355E+0	-0.66486	4.27774E-7	1.44749E+4	-6.20269E+0
5.36356E+0	-0.66584	3.87563E-7	1.44451E+4	6.26497E+0
5.38358E+0	-0.66683	3.80953E-7	1.49265E+4	-6.24124E+0
5.40359E+0	-0.66785	3.82606E-7	1.57907E+4	-6.10172E+0
5.42360E+0	-0.66887	3.79301E-7	1.51162E+4	-6.26470E+0
5.44362E+0	-0.66987	3.77098E-7	1.47583E+4	1.51652E-1
5.46363E+0	-0.67087	3.38540E-7	1.57079E+4	-7.41059E-2
5.48364E+0	-0.67186	3.44048E-7	1.58326E+4	2.19470E-3
5.50366E+0	-0.67285	3.91970E-7	1.36353E+4	-6.19278E+0
5.52367E+0	-0.67386	3.74894E-7	1.44133E+4	9.43585E-2
5.54368E+0	-0.67483	3.83157E-7	1.38672E+4	-6.14917E+0
5.56370E+0	-0.67588	4.00783E-7	1.50340E+4	8.58927E-2
5.58371E+0	-0.67687	3.89216E-7	1.53749E+4	-6.23991E+0
5.60372E+0	-0.67785	3.49005E-7	1.60010E+4	1.27838E-1
5.62374E+0	-0.67887	3.67183E-7	1.55469E+4	-6.15422E+0
5.64375E+0	-0.67986	3.77648E-7	1.51890E+4	9.48962E-2
5.66376E+0	-0.68087	4.03537E-7	1.51951E+4	-6.16460E+0
5.68378E+0	-0.68182	3.89767E-7	1.50733E+4	2.65254E-2
5.70379E+0	-0.68286	4.13452E-7	1.45027E+4	-4.24427E-3
5.72380E+0	-0.68383	3.81504E-7	1.47106E+4	4.60533E-2
5.74382E+0	-0.68486	3.85360E-7	1.61872E+4	-1.85085E-2
5.76383E+0	-0.68588	3.96377E-7	1.59436E+4	7.36560E-2
5.78384E+0	-0.68687	3.91970E-7	1.46814E+4	-6.13695E+0
5.80386E+0	-0.68785	3.85360E-7	1.46192E+4	1.15737E-1
5.82387E+0	-0.68885	4.15655E-7	1.45258E+4	-6.05382E+0
5.84388E+0	-0.68985	3.50107E-7	1.60943E+4	6.15234E+0
5.86390E+0	-0.69086	4.07393E-7	1.48412E+4	-6.21247E+0
5.88391E+0	-0.69186	4.11249E-7	1.48313E+4	6.27332E+0
5.90392E+0	-0.69288	3.94724E-7	1.63708E+4	-9.00862E-3
5.92394E+0	-0.69389	3.85360E-7	1.55397E+4	1.23431E-2
5.94395E+0	-0.69491	3.55615E-7	1.42876E+4	-6.21013E+0
5.96396E+0	-0.69593	3.85911E-7	1.51374E+4	7.40899E-2
5.98398E+0	-0.69690	3.90868E-7	1.46684E+4	-6.19899E+0
6.00399E+0	-0.69789	3.77648E-7	1.61352E+4	9.01257E-2
6.02400E+0	-0.69888	3.77098E-7	1.54142E+4	-6.12234E+0
6.04402E+0	-0.69987	3.60022E-7	1.41622E+4	6.21603E+0
6.06403E+0	-0.70085	4.06842E-7	1.38895E+4	-6.21084E+0
6.08404E+0	-0.70189	3.79301E-7	1.35396E+4	-6.12725E+0
6.10406E+0	-0.70284	3.88665E-7	1.51479E+4	-6.21846E+0
6.12407E+0	-0.70389	4.08495E-7	1.37959E+4	4.42140E-2
6.14408E+0	-0.70488	3.69937E-7	1.51438E+4	-2.05153E-3
6.16410E+0	-0.70586	3.82055E-7	1.43131E+4	9.15306E-2
6.18411E+0	-0.70687	3.98029E-7	1.49036E+4	-6.18650E+0
6.20412E+0	-0.70786	3.79301E-7	1.50964E+4	-6.11415E+0
6.22414E+0	-0.70886	3.79301E-7	1.45950E+4	-6.16534E+0
6.24415E+0	-0.70986	3.24769E-7	1.43062E+4	1.09279E-1
6.26416E+0	-0.71091	3.73793E-7	1.57376E+4	-6.19068E+0
6.28418E+0	-0.71187	3.64429E-7	1.43052E+4	6.18546E+0
6.30419E+0	-0.71288	4.09596E-7	1.39572E+4	-6.19229E+0
6.32420E+0	-0.71390	3.73793E-7	1.39572E+4	3.00239E-2
6.34422E+0	-0.71492	3.69937E-7	1.41696E+4	-6.21239E+0
6.36423E+0	-0.71588	3.51760E-7	1.42722E+4	6.25351E+0
6.38424E+0	-0.71691	3.59471E-7	1.56926E+4	-6.18343E+0
6.40426E+0	-0.71790	3.50107E-7	1.45575E+4	1.04532E-2
6.42427E+0	-0.71891	3.51760E-7		
6.44428E+0	-0.71990	3.60573E-7		
6.46430E+0	-0.72093	3.27523E-7		
6.48431E+0	-0.72190	3.62225E-7		
6.50432E+0	-0.72289	3.55615E-7		
6.52434E+0	-0.72389	3.85360E-7		
6.54435E+0	-0.72489	3.56166E-7		
6.56436E+0	-0.72590	3.82055E-7		
6.58438E+0	-0.72692	3.57819E-7		
6.60439E+0	-0.72788	3.68284E-7		
6.62440E+0	-0.72890	3.71038E-7		
6.64442E+0	-0.72986	3.23667E-7		
6.66443E+0	-0.73089	3.68284E-7		
6.68444E+0	-0.73189	3.63327E-7		
6.70446E+0	-0.73285	3.62225E-7		
6.72447E+0	-0.73390	3.43497E-7		
6.74448E+0	-0.73491	3.67734E-7		
6.76450E+0	-0.73591	3.49556E-7		
6.78451E+0	-0.73690	3.82606E-7		
6.80452E+0	-0.73789	3.46251E-7		
6.82454E+0	-0.73889	3.44048E-7		
6.84455E+0	-0.73990	3.23667E-7		
6.86456E+0	-0.74091	3.19812E-7		
6.88458E+0	-0.74184	3.56166E-7		
6.90459E+0	-0.74286	3.43497E-7		
6.92460E+0	-0.74389	3.58369E-7		
6.94461E+0	-0.74489	3.19812E-7		
6.96463E+0	-0.74591	3.01634E-7		
6.98464E+0	-0.74686	3.12651E-7		
7.00465E+0	-0.74789	3.13752E-7		
7.02467E+0	-0.74885	3.40192E-7		
7.04468E+0	-0.74985	3.42395E-7		
7.06469E+0	-0.75095	3.29176E-7		
7.08471E+0	-0.75191	2.95024E-7		
7.10472E+0	-0.75296	3.03838E-7		
7.12473E+0	-0.75389	3.33031E-7		
7.14475E+0	-0.75490	3.03838E-7		
7.16476E+0	-0.75590	3.14303E-7		
7.18477E+0	-0.75688	2.99431E-7		
7.20479E+0	-0.75792	2.91719E-7		
7.22480E+0	-0.75892	3.13752E-7		
7.24481E+0	-0.75990	3.27523E-7		
7.26483E+0	-0.76088	3.10447E-7		
7.28484E+0	-0.76194	2.90067E-7		
7.30485E+0	-0.76290	3.09897E-7		
7.32487E+0	-0.76392	3.10998E-7		
7.34488E+0	-0.76487	3.06041E-7		
7.36489E+0	-0.76591	2.93923E-7		
7.38491E+0	-0.76694	2.95024E-7		
7.40492E+0	-0.76790	2.75745E-7		
7.42493E+0	-0.76894	2.71890E-7		
7.44495E+0	-0.76994	2.80703E-7		
7.46496E+0	-0.77091	2.89516E-7		
7.48497E+0	-0.77190	2.58670E-7		
7.50499E+0	-0.77288	2.53712E-7		
7.52500E+0	-0.77394	2.74644E-7		
7.54501E+0	-0.77492	2.91719E-7		
7.56503E+0	-0.77594	2.89516E-7		
7.58504E+0	-0.77692	2.97228E-7		
7.60505E+0	-0.77791	2.66932E-7		
7.62507E+0	-0.77891	2.86762E-7		
7.64508E+0	-0.77995	2.81254E-7		
7.66509E+0	-0.78095	2.94474E-7		
7.68511E+0	-0.78192	2.72991E-7		
7.70512E+0	-0.78293	2.56466E-7		
7.72513E+0	-0.78395	2.48755E-7		
7.74515E+0	-0.78497	2.47102E-7		
7.76516E+0	-0.78595	2.69686E-7		
7.78517E+0	-0.78698	2.75195E-7		
7.80519E+0	-0.78793	2.76296E-7		
7.82520E+0	-0.78896	2.33883E-7		
7.84521E+0	-0.78993	2.63076E-7		
7.86523E+0	-0.79094	2.75745E-7		
7.88524E+0	-0.79192	2.47653E-7		
7.90525E+0	-0.79294	2.48755E-7		
7.92527E+0	-0.79391	2.38289E-7		
7.94528E+0	-0.79493	2.28925E-7		
7.96529E+0	-0.79594	2.36637E-7		
7.98531E+0	-0.79695	2.01935E-7		
8.00532E+0	-0.79793	2.06892E-7		
8.02533E+0	-0.79896	2.51509E-7		
8.04535E+0	-0.79996	2.30027E-7		
8.06536E+0	-0.80099	2.04138E-7		
8.08537E+0	-0.80195	2.09646E-7		
8.10539E+0	-0.80299	1.84859E-7		
8.12540E+0	-0.80396	1.85961E-7		
8.14541E+0	-0.80496	2.34433E-7		
8.16543E+0	-0.80589	1.93121E-7		
8.18544E+0	-0.80683	2.11849E-7		
8.20545E+0	-0.80797	1.78800E-7		
8.22547E+0	-0.80897	2.03036E-7		
8.24548E+0	-0.80999	1.93672E-7		
8.26549E+0	-0.81101	1.94223E-7		
8.28551E+0	-0.81185	1.80452E-7		
8.30552E+0	-0.81300	1.80452E-7		
8.32553E+0	-0.81398	1.95325E-7		
8.34555E+0	-0.81488	1.51809E-7		
8.36556E+0	-0.81590	1.69987E-7		
8.38557E+0	-0.81695	1.83206E-7		
8.40559E+0	-0.81795	1.67232E-7		
8.42560E+0	-0.81894	1.66682E-7		
8.44561E+0	-0.81994	1.53462E-7		
8.46563E+0	-0.82094	1.55114E-7		
8.48564E+0	-0.82197	1.73292E-7		
8.50565E+0	-0.82296	1.66131E-7		
8.52567E+0	-0.82393	1.77698E-7		
8.54568E+0	-0.82496	1.66682E-7		
8.56569E+0	-0.82592	1.48504E-7		
8.58571E+0	-0.82695	1.48504E-7		
8.60572E+0	-0.82797	1.54013E-7		
8.62573E+0	-0.82893	1.63377E-7		
8.64575E+0	-0.82993	1.77147E-7		
8.66576E+0	-0.83096	1.07743E-7		
8.68577E+0	-0.83193	1.28675E-7		
8.70579E+0	-0.83296	1.12150E-7		
8.72580E+0	-0.83396	1.72190E-7		
8.74581E+0	-0.83492	1.24819E-7		
8.76583E+0	-0.83590	1.13251E-7		
8.78584E+0	-0.83694	1.34183E-7		
8.80585E+0	-0.83797	1.21514E-7		
8.82587E+0	-0.83894	1.16006E-7		
8.84588E+0	-0.83994	1.60072E-7		
8.86589E+0	-0.84095	1.46301E-7		
8.88591E+0	-0.84194	1.38589E-7		
8.90592E+0	-0.84297	1.09396E-7		
8.92593E+0	-0.84397	1.19310E-7		
8.94594E+0	-0.84496	9.72774E-8		
8.96596E+0	-0.84596	1.08294E-7		
8.98597E+0	-0.84697	8.51592E-8		
9.00599E+0	-0.84794	7.85493E-8		
9.02600E+0	-0.84895	7.85493E-8		
9.04601E+0	-0.84997	1.12701E-7		
9.06602E+0	-0.85093	1.07743E-7		
9.08604E+0	-0.85193	9.39725E-8		
9.10605E+0	-0.85298	7.13885E-8		
9.12607E+0	-0.85394	9.83791E-8		
9.14608E+0	-0.85493	8.84642E-8		
9.16609E+0	-0.85594	1.00032E-7		
9.18610E+0	-0.85694	7.19394E-8		
9.20612E+0	-0.85797	5.87195E-8		
9.22613E+0	-0.85895	5.92703E-8		
9.24614E+0	-0.85994	5.04571E-8		
9.26616E+0	-0.86097	4.93555E-8		
9.28617E+0	-0.86194	4.54997E-8		
9.30618E+0	-0.86299	1.96108E-8		
9.32620E+0	-0.86399	1.24500E-8		
9.34621E+0	-0.86498	3.88897E-8		
9.36622E+0	-0.86600	2.34666E-8		
9.38624E+0	-0.86700	-1.06847E-8		
9.40625E+0	-0.86799	9.14508E-9		
9.42626E+0	-0.86900	1.30009E-8		
9.44628E+0	-0.86996	1.24500E-8		
9.46629E+0	-0.87098	-2.97312E-9		
9.48630E+0	-0.87198	8.59425E-9		
9.50632E+0	-0.87298	1.79583E-8		
9.52633E+0	-0.87399	2.07124E-8		
9.54634E+0	-0.87497	5.28929E-9		
9.56636E+0	-0.87593	-1.61930E-8		
9.58637E+0	-0.87699	-1.87146E-9		
9.60638E+0	-0.87799	-2.22521E-8		
9.62640E+0	-0.87895	2.53515E-9		
9.64641E+0	-0.87998	-1.72946E-8		
9.66642E+0	-0.88099	-1.17864E-8		
9.68644E+0	-0.88198	-1.72946E-8		
9.70645E+0	-0.88296	-1.32064E-9		
9.72646E+0	-0.88399	-4.31835E-8		
9.74648E+0	-0.88497	-1.72946E-8		
9.76649E+0	-0.88597	-5.72725E-9		
9.78650E+0	-0.88698	-3.76752E-8		
9.80652E+0	-0.88800	-3.21670E-8		
9.82653E+0	-0.88896	-3.65736E-8		
9.84654E+0	-0.89004	-6.90724E-8		
9.86656E+0	-0.89095	-6.74199E-8		
9.88657E+0	-0.89198	-8.39447E-8		
9.90658E+0	-0.89302	-3.82261E-8		
9.92660E+0	-0.89396	-1.09283E-7		
9.94661E+0	-0.89499	-1.11486E-7		
9.96662E+0	-0.89599	-8.44955E-8		
9.98664E+0	-0.89698	-7.07249E-8		
1.00066E+1	-0.89801	-6.63182E-8		
1.00267E+1	-0.89895	-9.05546E-8		
1.00467E+1	-0.89998	-6.68691E-8		
1.00667E+1	-0.90098	-8.00889E-8		
1.00867E+1	-0.90199	-1.12037E-7		
1.01067E+1	-0.90301	-1.16444E-7		
1.01267E+1	-0.90400	-8.83513E-8		
1.01467E+1	-0.90501	-1.08181E-7		
1.01668E+1	-0.90599	-9.88170E-8		
1.01868E+1	-0.90700	-1.21952E-7		
1.02068E+1	-0.90803	-1.22503E-7		
1.02268E+1	-0.90902	-1.48391E-7		
1.02468E+1	-0.91004	-1.44536E-7		
1.02668E+1	-0.91100	-1.36273E-7		
1.02868E+1	-0.91199	-1.55552E-7		
1.03068E+1	-0.91300	-1.32417E-7		
1.03269E+1	-0.91400	-1.07630E-7		
1.03469E+1	-0.91502	-1.29663E-7		
1.03669E+1	-0.91602	-1.52247E-7		
1.03869E+1	-0.91700	-1.28562E-7		
1.04069E+1	-0.91801	-1.69874E-7		
1.04269E+1	-0.91902	-1.56654E-7		
1.04469E+1	-0.92001	-1.47841E-7		
1.04670E+1	-0.92101	-1.83094E-7		
1.04870E+1	-0.92202	-1.87500E-7		
1.05070E+1	-0.92302	-1.80890E-7		
1.05270E+1	-0.92404	-1.95763E-7		
1.05470E+1	-0.92503	-1.77034E-7		
1.05670E+1	-0.92603	-1.86399E-7		
1.05870E+1	-0.92701	-1.77585E-7		
1.06070E+1	-0.92803	-1.58306E-7		
1.06271E+1	-0.92904	-2.17245E-7		
1.06471E+1	-0.93005	-2.12838E-7		
1.06671E+1	-0.93102	-2.01271E-7		
1.06871E+1	-0.93204	-2.15042E-7		
1.07071E+1	-0.93301	-2.13940E-7		
1.07271E+1	-0.93405	-2.13940E-7		
1.07471E+1	-0.93501	-2.11737E-7		
1.07672E+1	-0.93603	-2.15042E-7		
1.07872E+1	-0.93705	-2.07330E-7		
1.08072E+1	-0.93801	-2.33770E-7		
1.08272E+1	-0.93902	-2.23304E-7		
1.08472E+1	-0.94001	-2.34871E-7		
1.08672E+1	-0.94102	-2.40930E-7		
1.08872E+1	-0.94204	-2.46990E-7		
1.09072E+1	-0.94303	-2.48642E-7		
1.09273E+1	-0.94406	-2.26058E-7		
1.09473E+1	-0.94506	-2.49193E-7		
1.09673E+1	-0.94605	-2.55252E-7		
1.09873E+1	-0.94704	-2.67370E-7		
1.10073E+1	-0.94803	-2.62413E-7		
1.10273E+1	-0.94907	-2.29363E-7		
1.10473E+1	-0.95007	-2.80039E-7		
1.10674E+1	-0.95108	-2.87200E-7		
1.10874E+1	-0.95210	-2.77285E-7		
1.11074E+1	-0.95309	-2.83895E-7		
1.11274E+1	-0.95409	-2.53049E-7		
1.11474E+1	-0.95504	-2.72878E-7		
1.11674E+1	-0.95606	-2.62964E-7		
1.11874E+1	-0.95706	-3.09233E-7		
1.12074E+1	-0.95806	-3.03725E-7		
1.12275E+1	-0.95905	-2.81141E-7		
1.12475E+1	-0.96008	-3.25758E-7		
1.12675E+1	-0.96105	-3.08131E-7		
1.12875E+1	-0.96209	-3.07030E-7		
1.13075E+1	-0.96313	-3.44486E-7		
1.13275E+1	-0.96410	-3.23004E-7		
1.13475E+1	-0.96510	-3.80841E-7		
1.13676E+1	-0.96609	-3.14741E-7		
1.13876E+1	-0.96707	-3.37876E-7		
1.14076E+1	-0.96803	-3.63214E-7		
1.14276E+1	-0.96907	-3.67070E-7		
1.14476E+1	-0.97011	-3.80841E-7		
1.14676E+1	-0.97100	-3.52198E-7		
1.14876E+1	-0.97219	-3.58257E-7		
1.15076E+1	-0.97307	-3.72027E-7		
1.15277E+1	-0.97411	-3.60460E-7		
1.15477E+1	-0.97513	-3.94611E-7		
1.15677E+1	-0.97600	-3.70375E-7		
1.15877E+1	-0.97700	-3.78637E-7		
1.16077E+1	-0.97809	-3.62112E-7		
1.16277E+1	-0.97909	-3.88552E-7		
1.16477E+1	-0.98008	-4.02874E-7		
1.16678E+1	-0.98109	-4.09484E-7		
1.16878E+1	-0.98206	-3.76434E-7		
1.17078E+1	-0.98310	-4.18848E-7		
1.17278E+1	-0.98412	-4.11687E-7		
1.17478E+1	-0.98514	-4.17195E-7		
1.17678E+1	-0.98611	-4.22703E-7		
1.17878E+1	-0.98706	-4.16093E-7		
1.18078E+1	-0.98809	-4.12788E-7		
1.18279E+1	-0.98911	-4.55202E-7		
1.18479E+1	-0.99008	-4.35923E-7		
1.18679E+1	-0.99113	-4.35923E-7		
1.18879E+1	-0.99210	-4.41982E-7		
1.19079E+1	-0.99308	-4.82744E-7		
1.19279E+1	-0.99409	-4.44186E-7		
1.19479E+1	-0.99510	-4.46389E-7		
1.19680E+1	-0.99608	-4.71176E-7		
1.19880E+1	-0.99704	-4.77235E-7		
1.20080E+1	-0.99804	-4.73930E-7		
1.20280E+1	-0.99906	-5.10836E-7		
1.20480E+1	-1.00005	-4.89353E-7		
1.20680E+1	-1.00107	-5.02022E-7		
1.20880E+1	-1.00208	-4.93209E-7		
1.21080E+1	-1.00308	-5.25708E-7		
1.21281E+1	-1.00405	-4.89904E-7		
1.21481E+1	-1.00508	-5.03124E-7		
1.21681E+1	-1.00612	-4.98167E-7		
1.21881E+1	-1.00706	-5.13039E-7		
1.22081E+1	-1.00807	-5.16344E-7		
1.22281E+1	-1.00910	-5.04777E-7		
1.22481E+1	-1.01007	-5.24056E-7		
1.22682E+1	-1.01107	-5.26259E-7		
1.22882E+1	-1.01210	-5.26810E-7		
1.23082E+1	-1.01307	-5.59308E-7		
1.23282E+1	-1.01410	-5.67571E-7		
1.23482E+1	-1.01506	-5.58758E-7		
1.23682E+1	-1.01606	-5.56554E-7		
1.23882E+1	-1.01705	-5.43335E-7		
1.24082E+1	-1.01807	-5.69774E-7		
1.24283E+1	-1.01909	-5.88502E-7		
1.24483E+1	-1.02010	-6.05027E-7		
1.24683E+1	-1.02105	-5.76935E-7		
1.24883E+1	-1.02207	-6.09985E-7		
1.25083E+1	-1.02306	-6.11637E-7		
1.25283E+1	-1.02406	-6.16044E-7		
1.25483E+1	-1.02510	-6.13840E-7		
1.25684E+1	-1.02607	-6.14942E-7		
1.25884E+1	-1.02708	-6.47992E-7		
1.26084E+1	-1.02808	-6.52949E-7		
1.26284E+1	-1.02912	-6.68923E-7		
1.26484E+1	-1.03009	-6.54602E-7		
1.26684E+1	-1.03109	-6.71126E-7		
1.26884E+1	-1.03208	-6.95363E-7		
1.27084E+1	-1.03306	-6.66720E-7		
1.27285E+1	-1.03411	-6.70025E-7		
1.27485E+1	-1.03509	-7.03625E-7		
1.27685E+1	-1.03615	-7.10235E-7		
1.27885E+1	-1.03712	-6.85999E-7		
1.28085E+1	-1.03811	-7.21803E-7		
1.28285E+1	-1.03912	-7.32268E-7		
1.28485E+1	-1.04013	-7.27311E-7		
1.28686E+1	-1.04109	-7.08032E-7		
1.28886E+1	-1.04212	-7.74682E-7		
1.29086E+1	-1.04310	-7.40531E-7		
1.29286E+1	-1.04411	-7.57055E-7		
1.29486E+1	-1.04510	-7.83495E-7		
1.29686E+1	-1.04612	-8.09935E-7		
1.29886E+1	-1.04710	-8.31968E-7		
1.30086E+1	-1.04814	-8.23155E-7		
1.30287E+1	-1.04917	-8.07732E-7		
1.30487E+1	-1.05014	-8.28663E-7		
1.30687E+1	-1.05113	-8.34722E-7		
1.30887E+1	-1.05215	-8.60060E-7		
1.31087E+1	-1.05306	-8.88152E-7		
1.31287E+1	-1.05417	-8.74382E-7		
1.31487E+1	-1.05512	-8.54552E-7		
1.31688E+1	-1.05614	-8.56204E-7		
1.31888E+1	-1.05717	-8.67221E-7		
1.32088E+1	-1.05814	-8.74932E-7		
1.32288E+1	-1.05911	-8.60060E-7		
1.32488E+1	-1.06011	-8.64467E-7		
1.32688E+1	-1.06112	-9.23956E-7		
1.32888E+1	-1.06212	-9.39379E-7		
1.33088E+1	-1.06312	-9.50947E-7		
1.33289E+1	-1.06416	-9.48743E-7		
1.33489E+1	-1.06515	-9.72429E-7		
1.33689E+1	-1.06609	-9.53701E-7		
1.33889E+1	-1.06712	-9.55353E-7		
1.34089E+1	-1.06809	-9.63065E-7		
1.34289E+1	-1.06911	-9.64717E-7		
1.34489E+1	-1.07013	-9.83445E-7		
1.34690E+1	-1.07111	-1.02916E-6		
1.34890E+1	-1.07211	-9.97216E-7		
1.35090E+1	-1.07312	-9.89504E-7		
1.35290E+1	-1.07412	-1.04073E-6		
1.35490E+1	-1.07510	-1.03688E-6		
1.35690E+1	-1.07611	-1.05010E-6		
1.35890E+1	-1.07712	-1.05230E-6		
1.36090E+1	-1.07815	-1.06001E-6		
1.36291E+1	-1.07915	-1.08645E-6		
1.36491E+1	-1.08015	-1.05726E-6		
1.36691E+1	-1.08112	-1.09086E-6		
1.36891E+1	-1.08214	-1.11399E-6		
1.37091E+1	-1.08313	-1.14208E-6		
1.37291E+1	-1.08415	-1.12776E-6		
1.37491E+1	-1.08511	-1.14869E-6		
1.37692E+1	-1.08612	-1.16191E-6		
1.37892E+1	-1.08709	-1.15971E-6		
1.38092E+1	-1.08813	-1.18009E-6		
1.38292E+1	-1.08912	-1.17513E-6		
1.38492E+1	-1.09011	-1.19882E-6		
1.38692E+1	-1.09114	-1.19717E-6		
1.38892E+1	-1.09215	-1.21204E-6		
1.39092E+1	-1.09312	-1.23958E-6		
1.39293E+1	-1.09415	-1.23848E-6		
1.39493E+1	-1.09516	-1.23352E-6		
1.39693E+1	-1.09615	-1.27704E-6		
1.39893E+1	-1.09716	-1.27759E-6		
1.40093E+1	-1.09811	-1.25666E-6		
1.40293E+1	-1.09910	-1.27483E-6		
1.40493E+1	-1.10012	-1.29301E-6		
1.40694E+1	-1.10115	-1.31174E-6		
1.40894E+1	-1.10216	-1.35525E-6		
1.41094E+1	-1.10313	-1.33983E-6		
1.41294E+1	-1.10412	-1.34699E-6		
1.41494E+1	-1.10511	-1.38059E-6		
1.41694E+1	-1.10613	-1.35966E-6		
1.41894E+1	-1.10715	-1.38445E-6		
1.42094E+1	-1.10814	-1.42686E-6		
1.42295E+1	-1.10912	-1.41750E-6		
1.42495E+1	-1.11014	-1.41860E-6		
1.42695E+1	-1.11117	-1.45440E-6		
1.42895E+1	-1.11214	-1.45991E-6		
1.43095E+1	-1.11314	-1.46046E-6		
1.43295E+1	-1.11417	-1.48360E-6		
1.43495E+1	-1.11513	-1.48470E-6		
1.43695E+1	-1.11615	-1.48635E-6		
1.43896E+1	-1.11714	-1.52491E-6		
1.44096E+1	-1.11817	-1.53372E-6		
1.44296E+1	-1.11919	-1.51665E-6		
1.44496E+1	-1.12016	-1.56402E-6		
1.44696E+1	-1.12118	-1.59652E-6		
1.44896E+1	-1.12218	-1.57283E-6		
1.45096E+1	-1.12316	-1.60533E-6		
1.45297E+1	-1.12416	-1.62351E-6		
1.45497E+1	-1.12517	-1.61469E-6		
1.45697E+1	-1.12617	-1.61194E-6		
1.45897E+1	-1.12719	-1.64334E-6		
1.46097E+1	-1.12816	-1.65876E-6		
1.46297E+1	-1.12911	-1.66702E-6		
1.46497E+1	-1.13010	-1.68520E-6		
1.46697E+1	-1.13118	-1.69732E-6		
1.46898E+1	-1.13220	-1.72706E-6		
1.47098E+1	-1.13320	-1.69787E-6		
1.47298E+1	-1.13427	-1.75405E-6		
1.47498E+1	-1.13511	-1.79261E-6		
1.47698E+1	-1.13618	-1.75791E-6		
1.47898E+1	-1.13715	-1.78931E-6		
1.48098E+1	-1.13811	-1.78710E-6		
1.48299E+1	-1.13917	-1.83943E-6		
1.48499E+1	-1.14017	-1.83502E-6		
1.48699E+1	-1.14117	-1.86532E-6		
1.48899E+1	-1.14219	-1.89176E-6		
1.49099E+1	-1.14319	-1.90718E-6		
1.49299E+1	-1.14419	-1.88074E-6		
1.49499E+1	-1.14520	-1.93583E-6		
1.49699E+1	-1.14623	-1.93693E-6		
1.49900E+1	-1.14720	-1.91600E-6		
1.50100E+1	-1.14821	-1.95125E-6		
1.50300E+1	-1.14919	-1.96888E-6		
1.50500E+1	-1.15020	-1.98981E-6		
1.50700E+1	-1.15118	-1.98210E-6		
1.50900E+1	-1.15219	-2.03057E-6		
1.51100E+1	-1.15319	-2.04489E-6		
1.51301E+1	-1.15419	-2.02065E-6		
1.51501E+1	-1.15519	-2.05536E-6		
1.51701E+1	-1.15621	-2.06362E-6		
1.51901E+1	-1.15719	-2.10438E-6		
1.52101E+1	-1.15820	-2.07849E-6		
1.52301E+1	-1.15921	-2.13247E-6		
1.52501E+1	-1.16022	-2.14900E-6		
1.52701E+1	-1.16121	-2.16166E-6		
1.52902E+1	-1.16218	-2.16166E-6		
1.53102E+1	-1.16324	-2.19306E-6		
1.53302E+1	-1.16414	-2.20132E-6		
1.53502E+1	-1.16520	-2.22831E-6		
1.53702E+1	-1.16619	-2.25090E-6		
1.53902E+1	-1.16720	-2.26302E-6		
1.54102E+1	-1.16822	-2.26632E-6		
1.54303E+1	-1.16916	-2.30818E-6		
1.54503E+1	-1.17016	-2.30763E-6		
1.54703E+1	-1.17119	-2.30488E-6		
1.54903E+1	-1.17217	-2.35886E-6		
1.55103E+1	-1.17320	-2.35941E-6		
1.55303E+1	-1.17416	-2.35721E-6		
1.55503E+1	-1.17516	-2.37428E-6		
1.55703E+1	-1.17619	-2.43322E-6		
1.55904E+1	-1.17721	-2.41119E-6		
1.56104E+1	-1.17819	-2.39522E-6		
1.56304E+1	-1.17921	-2.41449E-6		
1.56504E+1	-1.18020	-2.49326E-6		
1.56704E+1	-1.18122	-2.49051E-6		
1.56904E+1	-1.18221	-2.51309E-6		
1.57104E+1	-1.18321	-2.53623E-6		
1.57305E+1	-1.18422	-2.54118E-6		
1.57505E+1	-1.18520	-2.57313E-6		
1.57705E+1	-1.18622	-2.56377E-6		
1.57905E+1	-1.18720	-2.57699E-6		
1.58105E+1	-1.18819	-2.60728E-6		
1.58305E+1	-1.18917	-2.63152E-6		
1.58505E+1	-1.19018	-2.61444E-6		
1.58705E+1	-1.19118	-2.65465E-6		
1.58906E+1	-1.19222	-2.68440E-6		
1.59106E+1	-1.19320	-2.69982E-6		
1.59306E+1	-1.19420	-2.72957E-6		
1.59506E+1	-1.19521	-2.74113E-6		
1.59706E+1	-1.19621	-2.75821E-6		
1.59906E+1	-1.19716	-2.77088E-6		
1.60106E+1	-1.19819	-2.76978E-6		
1.60307E+1	-1.19881	-2.75491E-6		
1.60507E+1	-1.19802	-2.68936E-6		
1.60707E+1	-1.19705	-2.60122E-6		
1.60907E+1	-1.19605	-2.57368E-6		
1.61107E+1	-1.19502	-2.49602E-6		
1.61307E+1	-1.19406	-2.44534E-6		
1.61507E+1	-1.19304	-2.40183E-6		
1.61707E+1	-1.19201	-2.33352E-6		
1.61908E+1	-1.19101	-2.30818E-6		
1.62108E+1	-1.18999	-2.27128E-6		
1.62308E+1	-1.18903	-2.22115E-6		
1.62508E+1	-1.18800	-2.18700E-6		
1.62708E+1	-1.18699	-2.09722E-6		
1.62908E+1	-1.18600	-2.09557E-6		
1.63108E+1	-1.18502	-2.06252E-6		
1.63309E+1	-1.18398	-2.04324E-6		
1.63509E+1	-1.18302	-1.98044E-6		
1.63709E+1	-1.18201	-1.93858E-6		
1.63909E+1	-1.18100	-1.92150E-6		
1.64109E+1	-1.17996	-1.90773E-6		
1.64309E+1	-1.17901	-1.84494E-6		
1.64509E+1	-1.17800	-1.81299E-6		
1.64709E+1	-1.17701	-1.82511E-6		
1.64910E+1	-1.17602	-1.76507E-6		
1.65110E+1	-1.17500	-1.74028E-6		
1.65310E+1	-1.17399	-1.71605E-6		
1.65510E+1	-1.17299	-1.66262E-6		
1.65710E+1	-1.17197	-1.64003E-6		
1.65910E+1	-1.17099	-1.63507E-6		
1.66110E+1	-1.16999	-1.61579E-6		
1.66311E+1	-1.16899	-1.56181E-6		
1.66511E+1	-1.16799	-1.55686E-6		
1.66711E+1	-1.16701	-1.52215E-6		
1.66911E+1	-1.16597	-1.47478E-6		
1.67111E+1	-1.16501	-1.49406E-6		
1.67311E+1	-1.16398	-1.42741E-6		
1.67511E+1	-1.16296	-1.42356E-6		
1.67711E+1	-1.16199	-1.39767E-6		
1.67912E+1	-1.16098	-1.35580E-6		
1.68112E+1	-1.16001	-1.34424E-6		
1.68312E+1	-1.15895	-1.26216E-6		
1.68512E+1	-1.15797	-1.28530E-6		
1.68712E+1	-1.15699	-1.24288E-6		
1.68912E+1	-1.15599	-1.20873E-6		
1.69112E+1	-1.15499	-1.23517E-6		
1.69313E+1	-1.15399	-1.19221E-6		
1.69513E+1	-1.15297	-1.19331E-6		
1.69713E+1	-1.15198	-1.15310E-6		
1.69913E+1	-1.15099	-1.15420E-6		
1.70113E+1	-1.14998	-1.12501E-6		
1.70313E+1	-1.14900	-1.09031E-6		
1.70513E+1	-1.14798	-1.06717E-6		
1.70713E+1	-1.14703	-1.06772E-6		
1.70914E+1	-1.14600	-1.00217E-6		
1.71114E+1	-1.14498	-1.01374E-6		
1.71314E+1	-1.14402	-1.01044E-6		
1.71514E+1	-1.14297	-9.86200E-7		
1.71714E+1	-1.14200	-9.56455E-7		
1.71914E+1	-1.14098	-9.22854E-7		
1.72114E+1	-1.14001	-9.07982E-7		
1.72315E+1	-1.13900	-9.06330E-7		
1.72515E+1	-1.13793	-8.94762E-7		
1.72715E+1	-1.13697	-8.53450E-7		
1.72915E+1	-1.13600	-8.48493E-7		
1.73115E+1	-1.13495	-8.38027E-7		
1.73315E+1	-1.13408	-8.03876E-7		
1.73515E+1	-1.13299	-7.65318E-7		
1.73715E+1	-1.13196	-7.90656E-7		
1.73916E+1	-1.13099	-7.72479E-7		
1.74116E+1	-1.12989	-7.56505E-7		
1.74316E+1	-1.12898	-7.23455E-7		
1.74516E+1	-1.12799	-6.98668E-7		
1.74716E+1	-1.12699	-6.62864E-7		
1.74916E+1	-1.12599	-6.65067E-7		
1.75116E+1	-1.12497	-6.41933E-7		
1.75317E+1	-1.12395	-6.22103E-7		
1.75517E+1	-1.12298	-6.21001E-7		
1.75717E+1	-1.12200	-5.98417E-7		
1.75917E+1	-1.12098	-6.09434E-7		
1.76117E+1	-1.12000	-5.89053E-7		
1.76317E+1	-1.11897	-5.26259E-7		
1.76517E+1	-1.11798	-5.34521E-7		
1.76717E+1	-1.11697	-5.36725E-7		
1.76918E+1	-1.11595	-4.83294E-7		
1.77118E+1	-1.11495	-5.10836E-7		
1.77318E+1	-1.11398	-4.97616E-7		
1.77518E+1	-1.11295	-4.49143E-7		
1.77718E+1	-1.11192	-4.50796E-7		
1.77918E+1	-1.11095	-4.38127E-7		
1.78118E+1	-1.10996	-4.18848E-7		
1.78319E+1	-1.10893	-4.40881E-7		
1.78519E+1	-1.10794	-3.80841E-7		
1.78719E+1	-1.10693	-3.84145E-7		
1.78919E+1	-1.10596	-3.95713E-7		
1.79119E+1	-1.10497	-3.38978E-7		
1.79319E+1	-1.10395	-3.31266E-7		
1.79519E+1	-1.10294	-3.71476E-7		
1.79719E+1	-1.10196	-3.23555E-7		
1.79920E+1	-1.10094	-3.13640E-7		
1.80120E+1	-1.09991	-2.86098E-7		
1.80320E+1	-1.09893	-2.67921E-7		
1.80520E+1	-1.09792	-2.77836E-7		
1.80720E+1	-1.09693	-2.70675E-7		
1.80920E+1	-1.09593	-2.43134E-7		
1.81120E+1	-1.09497	-2.14491E-7		
1.81320E+1	-1.09392	-2.27711E-7		
1.81521E+1	-1.09294	-2.11186E-7		
1.81721E+1	-1.09194	-1.88602E-7		
1.81921E+1	-1.09093	-2.24956E-7		
1.82121E+1	-1.08992	-1.95763E-7		
1.82321E+1	-1.08894	-1.67120E-7		
1.82521E+1	-1.08796	-1.52798E-7		
1.82721E+1	-1.08690	-1.35172E-7		
1.82922E+1	-1.08591	-8.61480E-8		
1.83122E+1	-1.08493	-1.21401E-7		
1.83322E+1	-1.08392	-9.33088E-8		
1.83522E+1	-1.08292	-1.30214E-7		
1.83722E+1	-1.08195	-7.12757E-8		
1.83922E+1	-1.08092	-8.28431E-8		
1.84122E+1	-1.07992	-4.81409E-8		
1.84322E+1	-1.07893	-5.03443E-8		
1.84523E+1	-1.07791	-2.28029E-8		
1.84723E+1	-1.07694	-2.39045E-8		
1.84923E+1	-1.07596	-1.89471E-8		
1.85123E+1	-1.07490	-1.06847E-8		
1.85323E+1	-1.07394	-5.72725E-9		
1.85523E+1	-1.07289	1.18992E-8		
1.85723E+1	-1.07190	3.33815E-8		
1.85924E+1	-1.07094	1.79583E-8		
1.86124E+1	-1.06996	3.00765E-8		
1.86324E+1	-1.06890	-2.42229E-9		
1.86524E+1	-1.06792	2.62207E-8		
1.86724E+1	-1.06693	7.63460E-8		
1.86924E+1	-1.06592	5.10079E-8		
1.87124E+1	-1.06493	6.80836E-8		
1.87324E+1	-1.06391	9.72774E-8		
1.87525E+1	-1.06293	7.79985E-8		
1.87725E+1	-1.06195	1.12701E-7		
1.87925E+1	-1.06093	1.16006E-7		
1.88125E+1	-1.05990	1.19310E-7		
1.88325E+1	-1.05894	1.26471E-7		
1.88525E+1	-1.05797	1.30878E-7		
1.88725E+1	-1.05697	1.22065E-7		
1.88926E+1	-1.05591	1.45199E-7		
1.89126E+1	-1.05493	1.46301E-7		
1.89326E+1	-1.05390	1.50708E-7		
1.89526E+1	-1.05287	1.74944E-7		
1.89726E+1	-1.05192	1.52911E-7		
1.89926E+1	-1.05090	2.05240E-7		
1.90126E+1	-1.04991	1.73842E-7		
1.90326E+1	-1.04898	2.00833E-7		
1.90527E+1	-1.04795	2.04138E-7		
1.90727E+1	-1.04690	2.49857E-7		
1.90927E+1	-1.04589	2.22866E-7		
1.91127E+1	-1.04495	2.30578E-7		
1.91327E+1	-1.04391	2.48204E-7		
1.91527E+1	-1.04294	2.48204E-7		
1.91727E+1	-1.04192	2.49857E-7		
1.91928E+1	-1.04095	2.50407E-7		
1.92128E+1	-1.03990	2.23417E-7		
1.92328E+1	-1.03888	2.53161E-7		
1.92528E+1	-1.03790	2.58670E-7		
1.92728E+1	-1.03689	2.93923E-7		
1.92928E+1	-1.03591	2.62526E-7		
1.93128E+1	-1.03495	2.74093E-7		
1.93328E+1	-1.03385	2.81254E-7		
1.93529E+1	-1.03289	2.96126E-7		
1.93729E+1	-1.03186	3.26421E-7		
1.93929E+1	-1.03090	2.85109E-7		
1.94129E+1	-1.02989	3.19261E-7		
1.94329E+1	-1.02891	3.15956E-7		
1.94529E+1	-1.02789	3.09897E-7		
1.94729E+1	-1.02691	3.33582E-7		
1.94930E+1	-1.02588	3.10447E-7		
1.95130E+1	-1.02490	3.52861E-7		
1.95330E+1	-1.02391	3.34133E-7		
1.95530E+1	-1.02285	3.59471E-7		
1.95730E+1	-1.02187	3.35786E-7		
1.95930E+1	-1.02087	3.50658E-7		
1.96130E+1	-1.01985	3.64979E-7		
1.96330E+1	-1.01890	3.66632E-7		
1.96531E+1	-1.01785	4.00783E-7		
1.96731E+1	-1.01688	3.53963E-7		
1.96931E+1	-1.01587	3.78199E-7		
1.97131E+1	-1.01488	3.99681E-7		
1.97331E+1	-1.01391	3.88114E-7		
1.97531E+1	-1.01289	3.49005E-7		
1.97731E+1	-1.01190	3.76547E-7		
1.97932E+1	-1.01091	3.83157E-7		
1.98132E+1	-1.00986	3.69386E-7		
1.98332E+1	-1.00890	4.21164E-7		
1.98532E+1	-1.00790	4.00783E-7		
1.98732E+1	-1.00692	4.15105E-7		
1.98932E+1	-1.00592	4.27774E-7		
1.99132E+1	-1.00489	4.20062E-7		
1.99332E+1	-1.00390	4.16206E-7		
1.99533E+1	-1.00288	4.44849E-7		
1.99733E+1	-1.00192	4.23918E-7		
1.99933E+1	-1.00087	4.00783E-7		
2.00133E+1	-0.99993	4.20062E-7		
2.00333E+1	-0.99889	4.37689E-7		
2.00533E+1	-0.99785	4.04639E-7		
2.00733E+1	-0.99687	4.48705E-7		
2.00934E+1	-0.99583	4.31079E-7		
2.01134E+1	-0.99491	4.43197E-7		
2.01334E+1	-0.99390	4.28325E-7		
2.01534E+1	-0.99290	4.72942E-7		
2.01734E+1	-0.99187	4.42095E-7		
2.01934E+1	-0.99087	4.70187E-7		
2.02134E+1	-0.98984	4.55866E-7		
2.02334E+1	-0.98887	4.32180E-7		
2.02535E+1	-0.98789	4.72391E-7		
2.02735E+1	-0.98691	5.03237E-7		
2.02935E+1	-0.98588	4.85060E-7		
2.03135E+1	-0.98489	4.84509E-7		
2.03335E+1	-0.98387	4.81755E-7		
2.03535E+1	-0.98291	4.70187E-7		
2.03735E+1	-0.98192	4.93873E-7		
2.03936E+1	-0.98089	4.97729E-7		
2.04136E+1	-0.97989	4.86712E-7		
2.04336E+1	-0.97887	4.85611E-7		
2.04536E+1	-0.97786	5.25270E-7		
2.04736E+1	-0.97686	4.91670E-7		
2.04936E+1	-0.97582	5.20863E-7		
2.05136E+1	-0.97493	5.08745E-7		
2.05336E+1	-0.97380	5.12601E-7		
2.05537E+1	-0.97294	5.41795E-7		
2.05737E+1	-0.97194	4.95525E-7		
2.05937E+1	-0.97084	5.10949E-7		
2.06137E+1	-0.96986	5.22516E-7		
2.06337E+1	-0.96881	5.30778E-7		
2.06537E+1	-0.96783	5.26372E-7		
2.06737E+1	-0.96689	5.12050E-7		
2.06938E+1	-0.96588	5.53362E-7		
2.07138E+1	-0.96488	5.41244E-7		
2.07338E+1	-0.96390	5.28575E-7		
2.07538E+1	-0.96285	5.28575E-7		
2.07738E+1	-0.96187	5.15906E-7		
2.07938E+1	-0.96087	5.55015E-7		
2.08138E+1	-0.95989	5.36837E-7		
2.08338E+1	-0.95888	5.16457E-7		
2.08539E+1	-0.95787	5.75946E-7		
2.08739E+1	-0.95685	5.26372E-7		
2.08939E+1	-0.95590	5.40142E-7		
2.09139E+1	-0.95484	5.56667E-7		
2.09339E+1	-0.95385	5.25821E-7		
2.09539E+1	-0.95287	5.49506E-7		
2.09739E+1	-0.95185	5.45651E-7		
2.09940E+1	-0.95090	5.37388E-7		
2.10140E+1	-0.94992	5.47854E-7		
2.10340E+1	-0.94885	5.37388E-7		
2.10540E+1	-0.94789	5.23067E-7		
2.10740E+1	-0.94685	5.52261E-7		
2.10940E+1	-0.94587	5.41244E-7		
2.11140E+1	-0.94485	5.58320E-7		
2.11340E+1	-0.94387	5.63277E-7		
2.11541E+1	-0.94285	5.35736E-7		
2.11741E+1	-0.94182	5.75395E-7		
2.11941E+1	-0.94088	5.66582E-7		
2.12141E+1	-0.93983	5.65480E-7		
2.12341E+1	-0.93884	5.50057E-7		
2.12541E+1	-0.93781	5.78149E-7		
2.12741E+1	-0.93683	5.64930E-7		
2.12942E+1	-0.93583	5.56116E-7		
2.13142E+1	-0.93482	5.63277E-7		
2.13342E+1	-0.93387	5.82005E-7		
2.13542E+1	-0.93285	5.19211E-7		
2.13742E+1	-0.93183	5.79802E-7		
2.13942E+1	-0.93086	5.26372E-7		
2.14142E+1	-0.92987	5.30228E-7		
2.14342E+1	-0.92882	5.23067E-7		
2.14543E+1	-0.92781	5.47303E-7		
2.14743E+1	-0.92682	5.70989E-7		
2.14943E+1	-0.92585	5.58871E-7		
2.15143E+1	-0.92485	5.91920E-7		
2.15343E+1	-0.92387	5.41795E-7		
2.15543E+1	-0.92283	5.47303E-7		
2.15743E+1	-0.92183	5.62726E-7		
2.15944E+1	-0.92082	5.56667E-7		
2.16144E+1	-0.91983	5.66582E-7		
2.16344E+1	-0.91885	5.43447E-7		
2.16544E+1	-0.91781	5.56116E-7		
2.16744E+1	-0.91682	5.51159E-7		
2.16944E+1	-0.91583	5.61074E-7		
2.17144E+1	-0.91483	5.82005E-7		
2.17344E+1	-0.91385	5.55566E-7		
2.17545E+1	-0.91285	5.86963E-7		
2.17745E+1	-0.91186	5.68785E-7		
2.17945E+1	-0.91083	5.70989E-7		
2.18145E+1	-0.90984	5.96327E-7		
2.18345E+1	-0.90882	5.61074E-7		
2.18545E+1	-0.90782	6.00733E-7		
2.18745E+1	-0.90683	6.07894E-7		
2.18946E+1	-0.90580	6.01284E-7		
2.19146E+1	-0.90482	5.75946E-7		
2.19346E+1	-0.90380	5.56116E-7		
2.19546E+1	-0.90280	5.99081E-7		
2.19746E+1	-0.90182	5.71540E-7		
2.19946E+1	-0.90080	5.43998E-7		
2.20146E+1	-0.89986	5.38490E-7		
2.20346E+1	-0.89883	5.09296E-7		
2.20547E+1	-0.89782	5.73743E-7		
2.20747E+1	-0.89679	5.72641E-7		
2.20947E+1	-0.89583	5.30778E-7		
2.21147E+1	-0.89481	5.69887E-7		
2.21347E+1	-0.89383	5.87514E-7		
2.21547E+1	-0.89285	5.69336E-7		
2.21747E+1	-0.89179	5.98530E-7		
2.21947E+1	-0.89080	5.63828E-7		
2.22148E+1	-0.88981	5.43447E-7		
2.22348E+1	-0.88884	5.68235E-7		
2.22548E+1	-0.88784	5.71540E-7		
2.22748E+1	-0.88682	5.59972E-7		
2.22948E+1	-0.88580	5.61625E-7		
2.23148E+1	-0.88480	5.71540E-7		
2.23348E+1	-0.88380	5.62726E-7		
2.23549E+1	-0.88280	5.80904E-7		
2.23749E+1	-0.88178	5.70438E-7		
2.23949E+1	-0.88078	5.62726E-7		
2.24149E+1	-0.87979	5.90819E-7		
2.24349E+1	-0.87881	5.87514E-7		
2.24549E+1	-0.87778	5.70989E-7		
2.24749E+1	-0.87683	5.81454E-7		
2.24949E+1	-0.87579	5.97979E-7		
2.25150E+1	-0.87477	5.52261E-7		
2.25350E+1	-0.87379	5.55015E-7		
2.25550E+1	-0.87277	5.84759E-7		
2.25750E+1	-0.87177	5.84759E-7		
2.25950E+1	-0.87080	5.81454E-7		
2.26150E+1	-0.86981	5.99632E-7		
2.26350E+1	-0.86874	5.88615E-7		
2.26551E+1	-0.86779	5.91920E-7		
2.26751E+1	-0.86679	5.65480E-7		
2.26951E+1	-0.86581	5.89717E-7		
2.27151E+1	-0.86479	5.76497E-7		
2.27351E+1	-0.86379	5.85310E-7		
2.27551E+1	-0.86279	5.69336E-7		
2.27751E+1	-0.86175	6.00183E-7		
2.27951E+1	-0.86078	5.91369E-7		
2.28152E+1	-0.85981	5.89166E-7		
2.28352E+1	-0.85875	5.93022E-7		
2.28552E+1	-0.85775	5.69336E-7		
2.28752E+1	-0.85676	5.80353E-7		
2.28952E+1	-0.85578	5.50057E-7		
2.29152E+1	-0.85478	5.79802E-7		
2.29352E+1	-0.85377	5.28024E-7		
2.29553E+1	-0.85277	5.75946E-7		
2.29753E+1	-0.85176	5.27473E-7		
2.29953E+1	-0.85075	5.43447E-7		
2.30153E+1	-0.84978	5.82556E-7		
2.30353E+1	-0.84880	5.78149E-7		
2.30553E+1	-0.84780	5.76497E-7		
2.30753E+1	-0.84677	5.70438E-7		
2.30953E+1	-0.84577	5.69336E-7		
2.31154E+1	-0.84474	5.64379E-7		
2.31354E+1	-0.84380	5.67684E-7		
2.31554E+1	-0.84278	5.75395E-7		
2.31754E+1	-0.84177	6.01284E-7		
2.31954E+1	-0.84075	5.44549E-7		
2.32154E+1	-0.83974	5.56667E-7		
2.32354E+1	-0.83874	5.53913E-7		
2.32555E+1	-0.83775	5.55566E-7		
2.32755E+1	-0.83675	5.47854E-7		
2.32955E+1	-0.83574	5.46752E-7		
2.33155E+1	-0.83474	5.46201E-7		
2.33355E+1	-0.83378	5.41244E-7		
2.33555E+1	-0.83276	5.80904E-7		
2.33755E+1	-0.83177	5.61074E-7		
2.33955E+1	-0.83077	5.67684E-7		
2.34156E+1	-0.82976	5.80904E-7		
2.34356E+1	-0.82874	5.58871E-7		
2.34556E+1	-0.82779	5.26923E-7		
2.34756E+1	-0.82677	5.01585E-7		
2.34956E+1	-0.82577	5.44549E-7		
2.35156E+1	-0.82474	5.43447E-7		
2.35356E+1	-0.82377	5.80353E-7		
2.35557E+1	-0.82279	5.66582E-7		
2.35757E+1	-0.82179	5.72641E-7		
2.35957E+1	-0.82078	5.21965E-7		
2.36157E+1	-0.81978	5.31329E-7		
2.36357E+1	-0.81878	5.46752E-7		
2.36557E+1	-0.81777	5.57769E-7		
2.36757E+1	-0.81675	5.50057E-7		
2.36957E+1	-0.81572	6.01835E-7		
2.37158E+1	-0.81466	5.77599E-7		
2.37358E+1	-0.81381	5.63277E-7		
2.37558E+1	-0.81280	5.61074E-7		
2.37758E+1	-0.81177	5.81454E-7		
2.37958E+1	-0.81089	5.34634E-7		
2.38158E+1	-0.80973	5.86963E-7		
2.38358E+1	-0.80875	5.61074E-7		
2.38559E+1	-0.80774	5.46201E-7		
2.38759E+1	-0.80671	5.56667E-7		
2.38959E+1	-0.80577	5.70989E-7		
2.39159E+1	-0.80474	5.97428E-7		
2.39359E+1	-0.80377	5.47854E-7		
2.39559E+1	-0.80278	5.66582E-7		
2.39759E+1	-0.80179	5.63277E-7		
2.39959E+1	-0.80073	5.83107E-7		
2.40160E+1	-0.79975	5.62176E-7		
2.40360E+1	-0.79873	5.43998E-7		
2.40560E+1	-0.79775	5.51710E-7		
2.40760E+1	-0.79674	5.90819E-7		
2.40960E+1	-0.79573	5.45651E-7		
2.41160E+1	-0.79473	5.59972E-7		
2.41360E+1	-0.79369	5.93022E-7		
2.41561E+1	-0.79275	5.95776E-7		
2.41761E+1	-0.79173	5.80904E-7		
2.41961E+1	-0.79076	5.66582E-7		
2.42161E+1	-0.78977	5.68785E-7		
2.42361E+1	-0.78875	5.29126E-7		
2.42561E+1	-0.78773	5.64930E-7		
2.42761E+1	-0.78675	5.55566E-7		
2.42961E+1	-0.78576	5.73743E-7		
2.43162E+1	-0.78478	5.56116E-7		
2.43362E+1	-0.78377	5.56667E-7		
2.43562E+1	-0.78274	5.48405E-7		
2.43762E+1	-0.78175	5.61074E-7		
2.43962E+1	-0.78076	5.57769E-7		
2.44162E+1	-0.77974	5.48956E-7		
2.44362E+1	-0.77875	5.73192E-7		
2.44563E+1	-0.77770	5.47854E-7		
2.44763E+1	-0.77674	5.32431E-7		
2.44963E+1	-0.77574	5.52811E-7		
2.45163E+1	-0.77471	5.57769E-7		
2.45363E+1	-0.77376	5.42897E-7		
2.45563E+1	-0.77271	5.84759E-7		
2.45763E+1	-0.77174	5.62176E-7		
2.45963E+1	-0.77074	5.55015E-7		
2.46164E+1	-0.76967	5.55566E-7		
2.46364E+1	-0.76870	5.59972E-7		
2.46564E+1	-0.76770	5.80353E-7		
2.46764E+1	-0.76668	5.35736E-7		
2.46964E+1	-0.76568	6.11750E-7		
2.47164E+1	-0.76469	5.89717E-7		
2.47364E+1	-0.76369	5.65480E-7		
2.47565E+1	-0.76271	5.60523E-7		
2.47765E+1	-0.76167	5.65480E-7		
2.47965E+1	-0.76072	5.40693E-7		
2.48165E+1	-0.75973	5.45651E-7		
2.48365E+1	-0.75868	5.29677E-7		
2.48565E+1	-0.75771	5.51710E-7		
2.48765E+1	-0.75669	5.20313E-7		
2.48965E+1	-0.75572	5.59421E-7		
2.49166E+1	-0.75472	5.40693E-7		
2.49366E+1	-0.75373	5.51710E-7		
2.49566E+1	-0.75273	5.60523E-7		
2.49766E+1	-0.75171	5.56667E-7		
2.49966E+1	-0.75071	5.61625E-7		
2.50166E+1	-0.74967	5.53362E-7		
2.50366E+1	-0.74869	5.48956E-7		
2.50567E+1	-0.74769	5.73743E-7		
2.50767E+1	-0.74671	5.78700E-7		
2.50967E+1	-0.74568	5.64930E-7		
2.51167E+1	-0.74473	5.32431E-7		
2.51367E+1	-0.74372	5.75946E-7		
2.51567E+1	-0.74271	5.36287E-7		
2.51767E+1	-0.74173	5.35185E-7		
2.51967E+1	-0.74071	5.47303E-7		
2.52168E+1	-0.73973	5.69887E-7		
2.52368E+1	-0.73872	5.72641E-7		
2.52568E+1	-0.73774	5.43998E-7		
2.52768E+1	-0.73672	5.80904E-7		
2.52968E+1	-0.73570	5.81454E-7		
2.53168E+1	-0.73472	5.51159E-7		
2.53368E+1	-0.73370	5.93573E-7		
2.53569E+1	-0.73267	5.57769E-7		
2.53769E+1	-0.73169	5.63277E-7		
2.53969E+1	-0.73065	5.82005E-7		
2.54169E+1	-0.72963	5.87514E-7		
2.54369E+1	-0.72867	5.81454E-7		
2.54569E+1	-0.72766	5.60523E-7		
2.54769E+1	-0.72671	5.45651E-7		
2.54969E+1	-0.72571	5.78700E-7		
2.55170E+1	-0.72469	5.73743E-7		
2.55370E+1	-0.72365	5.64930E-7		
2.55570E+1	-0.72267	5.78700E-7		
2.55770E+1	-0.72166	5.80904E-7		
2.55970E+1	-0.72069	5.23067E-7		
2.56170E+1	-0.71968	5.41244E-7		
2.56370E+1	-0.71870	5.40693E-7		
2.56571E+1	-0.71771	5.78149E-7		
2.56771E+1	-0.71669	5.58320E-7		
2.56971E+1	-0.71566	5.58320E-7		
2.57171E+1	-0.71469	5.65480E-7		
2.57371E+1	-0.71372	5.42897E-7		
2.57571E+1	-0.71269	5.62726E-7		
2.57771E+1	-0.71166	5.62176E-7		
2.57971E+1	-0.71069	5.52261E-7		
2.58172E+1	-0.70966	5.69336E-7		
2.58372E+1	-0.70867	5.45100E-7		
2.58572E+1	-0.70768	5.86412E-7		
2.58772E+1	-0.70665	5.63828E-7		
2.58972E+1	-0.70570	5.70438E-7		
2.59172E+1	-0.70466	5.73743E-7		
2.59372E+1	-0.70367	5.72090E-7		
2.59573E+1	-0.70273	5.66031E-7		
2.59773E+1	-0.70172	5.81454E-7		
2.59973E+1	-0.70070	5.64379E-7		
2.60173E+1	-0.69968	5.95776E-7		
2.60373E+1	-0.69872	5.43998E-7		
2.60573E+1	-0.69772	5.73192E-7		
2.60773E+1	-0.69672	5.83107E-7		
2.60973E+1	-0.69569	5.52811E-7		
2.61174E+1	-0.69472	5.43447E-7		
2.61374E+1	-0.69370	5.39041E-7		
2.61574E+1	-0.69267	5.19762E-7		
2.61774E+1	-0.69168	5.77048E-7		
2.61974E+1	-0.69069	5.73743E-7		
2.62174E+1	-0.68968	5.25821E-7		
2.62374E+1	-0.68870	5.57769E-7		
2.62575E+1	-0.68770	5.22516E-7		
2.62775E+1	-0.68666	5.59972E-7		
2.62975E+1	-0.68566	5.45100E-7		
2.63175E+1	-0.68465	5.54464E-7		
2.63375E+1	-0.68370	4.86712E-7		
2.63575E+1	-0.68270	5.41795E-7		
2.63775E+1	-0.68173	5.74845E-7		
2.63975E+1	-0.68067	5.61625E-7		
2.64176E+1	-0.67966	5.64930E-7		
2.64376E+1	-0.67866	5.58320E-7		
2.64576E+1	-0.67769	5.73743E-7		
2.64776E+1	-0.67666	5.54464E-7		
2.64976E+1	-0.67568	5.46201E-7		
2.65176E+1	-0.67464	5.32431E-7		
2.65376E+1	-0.67368	5.29126E-7		
2.65576E+1	-0.67268	5.31329E-7		
2.65777E+1	-0.67167	5.36837E-7		
2.65977E+1	-0.67065	5.34634E-7		
2.66177E+1	-0.66965	5.57218E-7		
2.66377E+1	-0.66870	5.46201E-7		
2.66577E+1	-0.66766	5.86963E-7		
2.66777E+1	-0.66666	5.42346E-7		
2.66977E+1	-0.66566	5.74294E-7		
2.67178E+1	-0.66469	5.47303E-7		
2.67378E+1	-0.66368	5.05991E-7		
2.67578E+1	-0.66268	5.39041E-7		
2.67778E+1	-0.66168	5.53913E-7		
2.67978E+1	-0.66066	5.42897E-7		
2.68178E+1	-0.65966	5.31880E-7		
2.68378E+1	-0.65866	5.17558E-7		
2.68578E+1	-0.65764	5.81454E-7		
2.68779E+1	-0.65665	5.66582E-7		
2.68979E+1	-0.65567	5.44549E-7		
2.69179E+1	-0.65469	5.62726E-7		
2.69379E+1	-0.65368	5.68235E-7		
2.69579E+1	-0.65268	5.78700E-7		
2.69779E+1	-0.65170	5.83658E-7		
2.69979E+1	-0.65064	5.30228E-7		
2.70180E+1	-0.64970	5.68235E-7		
2.70380E+1	-0.64870	5.49506E-7		
2.70580E+1	-0.64763	5.25821E-7		
2.70780E+1	-0.64667	5.40142E-7		
2.70980E+1	-0.64558	5.43998E-7		
2.71180E+1	-0.64465	5.61074E-7		
2.71380E+1	-0.64368	5.41795E-7		
2.71580E+1	-0.64264	5.66582E-7		
2.71781E+1	-0.64168	5.58871E-7		
2.71981E+1	-0.64069	5.57218E-7		
2.72181E+1	-0.63970	5.44549E-7		
2.72381E+1	-0.63866	5.65480E-7		
2.72581E+1	-0.63772	5.57218E-7		
2.72781E+1	-0.63671	5.45651E-7		
2.72981E+1	-0.63570	5.59972E-7		
2.73182E+1	-0.63466	5.42897E-7		
2.73382E+1	-0.63369	5.57769E-7		
2.73582E+1	-0.63268	5.73743E-7		
2.73782E+1	-0.63168	5.53913E-7		
2.73982E+1	-0.63067	5.55566E-7		
2.74182E+1	-0.62967	5.51710E-7		
2.74382E+1	-0.62866	5.56116E-7		
2.74582E+1	-0.62766	5.62726E-7		
2.74783E+1	-0.62668	5.70989E-7		
2.74983E+1	-0.62572	5.91920E-7		
2.75183E+1	-0.62466	5.09296E-7		
2.75383E+1	-0.62368	5.86412E-7		
2.75583E+1	-0.62265	5.64379E-7		
2.75783E+1	-0.62165	5.53913E-7		
2.75983E+1	-0.62066	5.48405E-7		
2.76184E+1	-0.61966	5.56116E-7		
2.76384E+1	-0.61867	5.44549E-7		
2.76584E+1	-0.61767	5.47303E-7		
2.76784E+1	-0.61664	5.45651E-7		
2.76984E+1	-0.61563	6.02937E-7		
2.77184E+1	-0.61465	5.61625E-7		
2.77384E+1	-0.61364	5.87514E-7		
2.77584E+1	-0.61266	5.45651E-7		
2.77785E+1	-0.61163	5.82005E-7		
2.77985E+1	-0.61062	5.24168E-7		
2.78185E+1	-0.60963	5.77599E-7		
2.78385E+1	-0.60867	5.45651E-7		
2.78585E+1	-0.60765	5.75946E-7		
2.78785E+1	-0.60666	5.66031E-7		
2.78985E+1	-0.60568	5.26923E-7		
2.79186E+1	-0.60464	5.59972E-7		
2.79386E+1	-0.60363	5.45100E-7		
2.79586E+1	-0.60262	5.73192E-7		
2.79786E+1	-0.60164	5.64930E-7		
2.79986E+1	-0.60059	5.89166E-7		
2.80186E+1	-0.59956	6.01835E-7		
2.80386E+1	-0.59860	5.96327E-7		
2.80586E+1	-0.59763	5.83658E-7		
2.80787E+1	-0.59663	5.58871E-7		
2.80987E+1	-0.59560	5.64379E-7		
2.81187E+1	-0.59460	5.64930E-7		
2.81387E+1	-0.59361	5.83107E-7		
2.81587E+1	-0.59262	5.30228E-7		
2.81787E+1	-0.59165	5.63277E-7		
2.81987E+1	-0.59061	5.46752E-7		
2.82188E+1	-0.58966	5.67684E-7		
2.82388E+1	-0.58863	5.70438E-7		
2.82588E+1	-0.58764	5.61074E-7		
2.82788E+1	-0.58666	5.44549E-7		
2.82988E+1	-0.58564	5.51159E-7		
2.83188E+1	-0.58464	5.78700E-7		
2.83388E+1	-0.58360	5.55566E-7		
2.83588E+1	-0.58263	5.53362E-7		
2.83789E+1	-0.58164	5.52811E-7		
2.83989E+1	-0.58067	5.58871E-7		
2.84189E+1	-0.57962	5.73192E-7		
2.84389E+1	-0.57863	5.75395E-7		
2.84589E+1	-0.57764	5.87514E-7		
2.84789E+1	-0.57659	5.90819E-7		
2.84989E+1	-0.57563	5.61074E-7		
2.85190E+1	-0.57462	5.61625E-7		
2.85390E+1	-0.57359	5.92471E-7		
2.85590E+1	-0.57265	5.88615E-7		
2.85790E+1	-0.57159	5.39592E-7		
2.85990E+1	-0.57060	5.93022E-7		
2.86190E+1	-0.56967	5.53913E-7		
2.86390E+1	-0.56861	5.45651E-7		
2.86590E+1	-0.56765	5.52811E-7		
2.86791E+1	-0.56659	5.76497E-7		
2.86991E+1	-0.56566	5.69336E-7		
2.87191E+1	-0.56465	5.24168E-7		
2.87391E+1	-0.56363	5.69887E-7		
2.87591E+1	-0.56262	5.30228E-7		
2.87791E+1	-0.56163	5.72641E-7		
2.87991E+1	-0.56064	5.54464E-7		
2.88192E+1	-0.55965	5.93573E-7		
2.88392E+1	-0.55865	5.20313E-7		
2.88592E+1	-0.55765	5.59421E-7		
2.88792E+1	-0.55664	5.85861E-7		
2.88992E+1	-0.55563	5.46201E-7		
2.89192E+1	-0.55463	5.75946E-7		
2.89392E+1	-0.55363	5.69887E-7		
2.89592E+1	-0.55259	5.57769E-7		
2.89793E+1	-0.55163	5.41795E-7		
2.89993E+1	-0.55064	5.86963E-7		
2.90193E+1	-0.54965	5.48956E-7		
2.90393E+1	-0.54861	5.80904E-7		
2.90593E+1	-0.54759	5.44549E-7		
2.90793E+1	-0.54662	5.96327E-7		
2.90993E+1	-0.54566	5.53913E-7		
2.91194E+1	-0.54466	5.52261E-7		
2.91394E+1	-0.54364	5.65480E-7		
2.91594E+1	-0.54267	5.83658E-7		
2.91794E+1	-0.54167	5.73192E-7		
2.91994E+1	-0.54062	5.33532E-7		
2.92194E+1	-0.53961	5.36837E-7		
2.92394E+1	-0.53864	5.67133E-7		
2.92594E+1	-0.53763	5.59972E-7		
2.92795E+1	-0.53666	5.45651E-7		
2.92995E+1	-0.53564	5.81454E-7		
2.93195E+1	-0.53461	5.51159E-7		
2.93395E+1	-0.53366	5.12050E-7		
2.93595E+1	-0.53267	5.55566E-7		
2.93795E+1	-0.53163	5.93573E-7		
2.93995E+1	-0.53064	5.99081E-7		
2.94196E+1	-0.52964	5.41244E-7		
2.94396E+1	-0.52864	5.56667E-7		
2.94596E+1	-0.52761	5.64930E-7		
2.94796E+1	-0.52664	5.44549E-7		
2.94996E+1	-0.52563	5.27473E-7		
2.95196E+1	-0.52461	5.57218E-7		
2.95396E+1	-0.52365	6.01284E-7		
2.95596E+1	-0.52261	5.61074E-7		
2.95797E+1	-0.52164	5.52811E-7		
2.95997E+1	-0.52063	5.52261E-7		
2.96197E+1	-0.51965	5.77048E-7		
2.96397E+1	-0.51863	5.91369E-7		
2.96597E+1	-0.51766	5.53362E-7		
2.96797E+1	-0.51666	5.56116E-7		
2.96997E+1	-0.51564	5.83107E-7		
2.97198E+1	-0.51460	5.62726E-7		
2.97398E+1	-0.51362	5.66582E-7		
2.97598E+1	-0.51260	5.41795E-7		
2.97798E+1	-0.51161	5.14804E-7		
2.97998E+1	-0.51062	5.64379E-7		
2.98198E+1	-0.50961	5.63828E-7		
2.98398E+1	-0.50863	5.56667E-7		
2.98598E+1	-0.50765	5.41244E-7		
2.98799E+1	-0.50664	5.51159E-7		
2.98999E+1	-0.50563	5.39592E-7		
2.99199E+1	-0.50463	5.77048E-7		
2.99399E+1	-0.50363	5.61625E-7		
2.99599E+1	-0.50262	5.71540E-7		
2.99799E+1	-0.50162	5.38490E-7		
2.99999E+1	-0.50061	5.53913E-7		
3.00200E+1	-0.49964	5.63277E-7		
3.00400E+1	-0.49864	5.46752E-7		
3.00600E+1	-0.49764	5.45100E-7		
3.00800E+1	-0.49663	5.53362E-7		
3.01000E+1	-0.49560	5.53913E-7		
3.01200E+1	-0.49459	5.58320E-7		
3.01400E+1	-0.49360	5.74845E-7		
3.01600E+1	-0.49257	5.56116E-7		
3.01801E+1	-0.49153	5.72641E-7		
3.02001E+1	-0.49065	5.78149E-7		
3.02201E+1	-0.48961	5.89166E-7		
3.02401E+1	-0.48865	5.69887E-7		
3.02601E+1	-0.48769	5.48956E-7		
3.02801E+1	-0.48654	5.65480E-7		
3.03001E+1	-0.48567	5.09296E-7		
3.03202E+1	-0.48458	5.61625E-7		
3.03402E+1	-0.48357	5.44549E-7		
3.03602E+1	-0.48260	5.51159E-7		
3.03802E+1	-0.48164	5.53362E-7		
3.04002E+1	-0.48061	5.69887E-7		
3.04202E+1	-0.47959	5.65480E-7		
3.04402E+1	-0.47861	5.68785E-7		
3.04602E+1	-0.47761	5.46752E-7		
3.04803E+1	-0.47661	5.95776E-7		
3.05003E+1	-0.47559	5.66031E-7		
3.05203E+1	-0.47462	6.05691E-7		
3.05403E+1	-0.47361	5.69887E-7		
3.05603E+1	-0.47257	5.51159E-7		
3.05803E+1	-0.47160	5.60523E-7		
3.06003E+1	-0.47061	5.55015E-7		
3.06203E+1	-0.46965	5.70438E-7		
3.06404E+1	-0.46861	5.99632E-7		
3.06604E+1	-0.46759	5.44549E-7		
3.06804E+1	-0.46660	5.86412E-7		
3.07004E+1	-0.46561	5.81454E-7		
3.07204E+1	-0.46460	5.69887E-7		
3.07404E+1	-0.46363	5.67684E-7		
3.07604E+1	-0.46260	5.67133E-7		
3.07805E+1	-0.46163	6.20563E-7		
3.08005E+1	-0.46062	5.71540E-7		
3.08205E+1	-0.45962	6.04589E-7		
3.08405E+1	-0.45859	5.83107E-7		
3.08605E+1	-0.45760	5.94674E-7		
3.08805E+1	-0.45663	5.90268E-7		
3.09005E+1	-0.45564	5.86412E-7		
3.09205E+1	-0.45459	5.77048E-7		
3.09406E+1	-0.45361	5.66031E-7		
3.09606E+1	-0.45259	5.56667E-7		
3.09806E+1	-0.45161	5.80904E-7		
3.10006E+1	-0.45060	5.79802E-7		
3.10206E+1	-0.44958	5.76497E-7		
3.10406E+1	-0.44856	6.09547E-7		
3.10606E+1	-0.44761	5.84759E-7		
3.10807E+1	-0.44661	5.86412E-7		
3.11007E+1	-0.44559	5.85861E-7		
3.11207E+1	-0.44458	6.04038E-7		
3.11407E+1	-0.44354	6.23868E-7		
3.11607E+1	-0.44260	5.94674E-7		
3.11807E+1	-0.44161	6.07343E-7		
3.12007E+1	-0.44062	6.21114E-7		
3.12207E+1	-0.43964	6.01835E-7		
3.12408E+1	-0.43861	5.94123E-7		
3.12608E+1	-0.43763	5.74294E-7		
3.12808E+1	-0.43660	5.70438E-7		
3.13008E+1	-0.43557	6.00183E-7		
3.13208E+1	-0.43459	5.67684E-7		
3.13408E+1	-0.43358	6.17258E-7		
3.13608E+1	-0.43258	5.82556E-7		
3.13809E+1	-0.43156	6.01284E-7		
3.14009E+1	-0.43058	5.96878E-7		
3.14209E+1	-0.42957	5.82005E-7		
3.14409E+1	-0.42855	5.76497E-7		
3.14609E+1	-0.42758	5.86963E-7		
3.14809E+1	-0.42660	5.85310E-7		
3.15009E+1	-0.42555	5.79802E-7		
3.15209E+1	-0.42460	6.08996E-7		
3.15410E+1	-0.42356	5.85310E-7		
3.15610E+1	-0.42257	5.85310E-7		
3.15810E+1	-0.42160	6.07894E-7		
3.16010E+1	-0.42057	6.28826E-7		
3.16210E+1	-0.41958	6.27724E-7		
3.16410E+1	-0.41857	6.20563E-7		
3.16610E+1	-0.41758	6.07894E-7		
3.16811E+1	-0.41660	5.97979E-7		
3.17011E+1	-0.41557	5.99632E-7		
3.17211E+1	-0.41455	6.23317E-7		
3.17411E+1	-0.41358	6.02937E-7		
3.17611E+1	-0.41257	5.90268E-7		
3.17811E+1	-0.41159	5.83107E-7		
3.18011E+1	-0.41057	5.91369E-7		
3.18211E+1	-0.40955	5.75395E-7		
3.18412E+1	-0.40858	6.16157E-7		
3.18612E+1	-0.40753	6.14504E-7		
3.18812E+1	-0.40655	6.01835E-7		
3.19012E+1	-0.40556	6.38190E-7		
3.19212E+1	-0.40453	6.31029E-7		
3.19412E+1	-0.40358	6.47003E-7		
3.19612E+1	-0.40253	6.13402E-7		
3.19813E+1	-0.40155	6.25521E-7		
3.20013E+1	-0.40055	5.99081E-7		
